File: R/rHDPE_App/app/www/Output/TGA/Features/Mean_Features.csv
,sample,TGA_Residue,TGA_Temp_160-180,TGA_Temp_300-320,TGA_Temp_380-400,TGA_Temp_460-480,TGA_Temp_480-500
0,1.0,0.00937245,0.431606,0.393659,0.481543,0.491016,0.419693
1,2.0,0.448248,0.717537,0.570984,0.58798,0.22169,0.399521
2,3.0,0.457847,0.302551,0.24199,0.286577,0.485974,0.390332
3,4.0,0.997555,0.163451,0.922443,0.379015,0.447818,0.208361
4,5.0,0.296794,0.838066,0.583978,0.404281,0.575438,0.258419
5,6.0,0.0287965,0.595274,0.504404,0.497856,0.657022,0.0501409
6,7.0,0.00353165,0.985259,0.641112,0.767186,0.496752,0.0610116
7,8.0,0.197501,0.345328,0.50157,0.887696,0.565206,0.0269921
8,9.0,0.482749,0.981574,0.600368,0.775343,0.249442,0.020579
9,10.0,0.264874,0.930631,0.810829,1.0,0.411896,0.169043
10,11.0,0.261614,0.536744,0.912231,0.577262,0.293736,0.0452199
11,12.0,0.0728063,0.315196,0.533047,0.259935,0.586958,0.460761
12,13.0,0.24314,0.543464,0.712951,0.99586,0.386651,0.374734
13,14.0,0.216517,0.791242,0.965689,0.376627,0.548254,0.329968
14,15.0,0.0111383,0.194667,0.264609,0.262662,0.65902,0.297135
15,16.0,0.0119533,0.171472,0.300222,0.421152,0.846028,0.104852
16,17.0,0.0169791,0.0583135,0.0226698,0.036443,0.817131,0.244752
17,18.0,0.406275,0.683503,0.646933,0.374235,0.385541,0.260795
18,19.0,0.00638413,0.0868199,0.248794,0.301584,0.743468,0.387402
19,20.0,0.237707,0.877086,0.722295,0.181372,0.418982,0.4163
20,21.0,0.330209,0.751138,0.523895,0.128939,0.602439,0.710236
21,22.0,0.46414,0.73553,0.569886,0.206733,0.306775,0.418032
22,23.0,0.563977,0.792976,0.687218,0.237797,0.307099,0.376302