File: R/rHDPE_App/app/www/Output/TGA/Features/Mean_Features_Unnormalised.csv
,sample,TGA_Residue,TGA_Temp_160-180,TGA_Temp_300-320,TGA_Temp_380-400,TGA_Temp_460-480,TGA_Temp_480-500
0,1.0,0.0945,0.00131826,0.00363835,0.0199644,2.94661,0.732043
1,2.0,1.71,0.00197765,0.00479581,0.0221107,2.71073,0.700386
2,3.0,1.74533,0.00102065,0.00264836,0.016033,2.9422,0.685965
3,4.0,3.732,0.000699875,0.0070899,0.017897,2.90878,0.400397
4,5.0,1.1525,0.0022556,0.00488063,0.0184065,3.02055,0.478953
5,6.0,0.166,0.0016957,0.00436122,0.0202934,3.09201,0.152102
6,7.0,0.073,0.00259504,0.00525356,0.0257244,2.95164,0.169161
7,8.0,0.787,0.0011193,0.00434272,0.0281545,3.01159,0.115774
8,9.0,1.837,0.00258654,0.00498761,0.0258889,2.73503,0.10571
9,10.0,1.035,0.00246906,0.00636136,0.0304191,2.87732,0.338695
10,11.0,1.023,0.00156072,0.00702325,0.0218946,2.77383,0.144379
11,12.0,0.328,0.00104981,0.00454819,0.0154957,3.03064,0.79649
12,13.0,0.955,0.00157622,0.00572248,0.0303356,2.85521,0.661488
13,14.0,0.857,0.00214762,0.00737218,0.0178488,2.99674,0.591236
14,15.0,0.101,0.000771862,0.002796,0.0155507,3.09376,0.539712
15,16.0,0.104,0.000718372,0.00302846,0.0187467,3.25754,0.237959
16,17.0,0.1225,0.000457418,0.00121678,0.010989,3.23223,0.457506
17,18.0,1.5555,0.00189916,0.00529155,0.0178006,2.85423,0.482682
18,19.0,0.0835,0.000523157,0.00269277,0.0163356,3.16772,0.681368
19,20.0,0.935,0.00234558,0.00578347,0.0139115,2.88352,0.726717
20,21.0,1.2755,0.00205513,0.00448845,0.0128542,3.0442,1.18799
21,22.0,1.7685,0.00201914,0.00478864,0.0144229,2.78525,0.729435
22,23.0,2.136,0.00215162,0.00555451,0.0150493,2.78553,0.663949
23,24.0,0.0733333,0.000270785,0.00104781,0.00991256,3.13448,0.775869