File: R/rHDPE_App/app/www/Output/TGA/Features/Std_of_Features.csv
,sample,TGA_Residue,TGA_Temp_160-180,TGA_Temp_300-320,TGA_Temp_380-400,TGA_Temp_460-480,TGA_Temp_480-500
0,1.0,0.00149416,0.0236289,0.0054377,0.235268,0.118122,0.301218
1,2.0,0.00502642,0.0495169,0.0134876,0.210346,0.152961,0.252168
2,3.0,0.0102627,0.064762,0.00416688,0.067882,0.104557,0.170798
3,4.0,0.00192736,0.0476994,0.0438305,0.0631402,0.0482446,0.0483205
4,5.0,0.0123608,0.161934,0.000229762,0.10059,0.0156926,0.0778422
5,6.0,0.0,0.0,0.0,0.0,0.0,0.0
6,7.0,0.0,0.0,0.0,0.0,0.0,0.0
7,8.0,0.0,0.0,0.0,0.0,0.0,0.0
8,9.0,0.0,0.0,0.0,0.0,0.0,0.0
9,10.0,0.0,0.0,0.0,0.0,0.0,0.0
10,11.0,0.0,0.0,0.0,0.0,0.0,0.0
11,12.0,0.0,0.0,0.0,0.0,0.0,0.0
12,13.0,0.0,0.0,0.0,0.0,0.0,0.0
13,14.0,0.0,0.0,0.0,0.0,0.0,0.0
14,15.0,0.0,0.0,0.0,0.0,0.0,0.0
15,16.0,0.0,0.0,0.0,0.0,0.0,0.0
16,17.0,0.00529747,0.0583135,0.0226698,0.036443,0.00243097,0.148871
17,18.0,0.00855746,0.222632,0.0119476,0.00916032,0.022619,0.0952823
18,19.0,0.00638413,0.00856276,0.0158153,0.0609614,0.0914946,0.0894618
19,20.0,0.00516164,0.0424886,0.0115647,0.0421201,0.126429,0.251911
20,21.0,0.0229557,0.0656839,0.00379107,0.0859757,0.397561,0.289764
21,22.0,0.0126324,0.0242792,0.0158536,0.0976771,0.101414,0.224352
22,23.0,0.00190166,0.0628658,0.0333921,0.0410293,0.0596555,0.152955