File: R/rHDPE_App/app/www/Output/TGA/Features/Std_of_Features_Unnormalised.csv
,sample,TGA_Residue,TGA_Temp_160-180,TGA_Temp_300-320,TGA_Temp_380-400,TGA_Temp_460-480,TGA_Temp_480-500
0,1.0,0.0055,5.44903e-05,3.54937e-05,0.00474415,0.103455,0.472704
1,2.0,0.0185023,0.00011419,8.80384e-05,0.0042416,0.133968,0.395729
2,3.0,0.0377771,0.000149347,2.71986e-05,0.00136883,0.0915746,0.268034
3,4.0,0.0070946,0.000109999,0.000286096,0.00127322,0.0422542,0.0758296
4,5.0,0.0455,0.000373433,1.49973e-06,0.00202839,0.013744,0.122158
5,6.0,0.0,0.0,0.0,0.0,0.0,0.0
6,7.0,0.0,0.0,0.0,0.0,0.0,0.0
7,8.0,0.0,0.0,0.0,0.0,0.0,0.0
8,9.0,0.0,0.0,0.0,0.0,0.0,0.0
9,10.0,0.0,0.0,0.0,0.0,0.0,0.0
10,11.0,0.0,0.0,0.0,0.0,0.0,0.0
11,12.0,0.0,0.0,0.0,0.0,0.0,0.0
12,13.0,0.0,0.0,0.0,0.0,0.0,0.0
13,14.0,0.0,0.0,0.0,0.0,0.0,0.0
14,15.0,0.0,0.0,0.0,0.0,0.0,0.0
15,16.0,0.0,0.0,0.0,0.0,0.0,0.0
16,17.0,0.0195,0.000134476,0.000147974,0.000734869,0.00212912,0.233625
17,18.0,0.0315,0.000513408,7.79861e-05,0.000184717,0.0198105,0.149527
18,19.0,0.0235,1.97465e-05,0.000103232,0.00122928,0.0801339,0.140393
19,20.0,0.019,9.79825e-05,7.54865e-05,0.000849348,0.11073,0.395326
20,21.0,0.0845,0.000151473,2.47456e-05,0.00173369,0.348197,0.454729
21,22.0,0.0465,5.599e-05,0.000103482,0.00196965,0.0888214,0.352077
22,23.0,0.007,0.000144974,0.000217961,0.000827352,0.0522482,0.240032
23,24.0,0.0176667,4.1969e-05,7.01213e-05,0.00130762,0.0740631,0.197099