File: R/rHDPE_App/Input/TGA/Mean_Features.csv
,sample,TGA_Residue,TGA_Temp_160-180,TGA_Temp_300-320,TGA_Temp_380-400,TGA_Temp_460-480,TGA_Temp_480-500
0,11.0,0.266001,0.561461,0.913536,0.616981,0.293736,0.0452199
1,14.0,0.221172,0.80238,0.966199,0.435198,0.548254,0.329968
2,10.0,0.269241,0.934332,0.813641,1.0,0.411896,0.169043
3,4.0,0.99757,0.208085,0.923595,0.437361,0.447818,0.208361
4,13.0,0.247637,0.567823,0.717217,0.996249,0.386651,0.374734
5,21.0,0.334188,0.764416,0.530972,0.210782,0.602439,0.710236
6,23.0,0.566568,0.804022,0.691867,0.309412,0.307099,0.376302
7,18.0,0.409803,0.70039,0.65218,0.43303,0.385541,0.260795
8,22.0,0.467324,0.749641,0.576279,0.281267,0.306775,0.418032
9,20.0,0.242236,0.883645,0.726422,0.258288,0.418982,0.4163
10,2.0,0.451526,0.732608,0.57736,0.626692,0.22169,0.399521
11,3.0,0.461068,0.339763,0.253257,0.353609,0.485974,0.390332
12,17.0,0.0228193,0.108557,0.0371963,0.126977,0.817131,0.244752
13,16.0,0.0178234,0.215678,0.310623,0.475539,0.846028,0.104852
14,19.0,0.0122873,0.135543,0.259959,0.367206,0.743468,0.387402
15,1.0,0.0152579,0.461933,0.402671,0.530256,0.491016,0.419693
16,15.0,0.0170132,0.237636,0.275539,0.331941,0.65902,0.297135
17,12.0,0.0783149,0.351734,0.539988,0.32947,0.586958,0.460761
18,6.0,0.0345666,0.616868,0.51177,0.545036,0.657022,0.0501409
19,5.0,0.300972,0.846706,0.590161,0.460254,0.575438,0.258419
20,7.0,0.0094518,0.986046,0.646446,0.789061,0.496752,0.0610116
21,9.0,0.485822,0.982557,0.606308,0.796451,0.249442,0.020579
22,8.0,0.202268,0.380259,0.508978,0.898248,0.565206,0.0269921
23,24.0,0.00954181,0.0319447,0.0116946,0.0786089,0.705522,0.44762