File: R/rHDPE_App/Input/TGA/Std_of_Features.csv
,sample,TGA_Residue,TGA_Temp_160-180,TGA_Temp_300-320,TGA_Temp_380-400,TGA_Temp_460-480,TGA_Temp_480-500
0,11.0,0.0,0.0,0.0,0.0,0.0,0.0
1,14.0,0.0,0.0,0.0,0.0,0.0,0.0
2,10.0,0.0,0.0,0.0,0.0,0.0,0.0
3,4.0,0.00191591,0.0451543,0.043179,0.0572077,0.0482446,0.0483205
4,13.0,0.0,0.0,0.0,0.0,0.0,0.0
5,21.0,0.0228193,0.0621794,0.00373472,0.0778976,0.397561,0.289764
6,23.0,0.00189036,0.0595116,0.0328957,0.0371743,0.0596555,0.152955
7,18.0,0.00850662,0.210753,0.01177,0.00829964,0.022619,0.0952823
8,22.0,0.0125574,0.0229838,0.0156179,0.0884996,0.101414,0.224352
9,20.0,0.00513097,0.0402216,0.0113928,0.0381626,0.126429,0.251911
10,2.0,0.00499656,0.0468749,0.0132872,0.190582,0.152961,0.252168
11,3.0,0.0102018,0.0613066,0.00410494,0.0615039,0.104557,0.170798
12,17.0,0.005266,0.0552021,0.0223329,0.0330189,0.00243097,0.148871
13,16.0,0.0,0.0,0.0,0.0,0.0,0.0
14,19.0,0.00634621,0.00810589,0.0155802,0.0552336,0.0914946,0.0894618
15,1.0,0.00148528,0.0223682,0.00535687,0.213163,0.118122,0.301218
16,15.0,0.0,0.0,0.0,0.0,0.0,0.0
17,12.0,0.0,0.0,0.0,0.0,0.0,0.0
18,6.0,0.0,0.0,0.0,0.0,0.0,0.0
19,5.0,0.0122873,0.153294,0.000226347,0.0911388,0.0156926,0.0778422
20,7.0,0.0,0.0,0.0,0.0,0.0,0.0
21,9.0,0.0,0.0,0.0,0.0,0.0,0.0
22,8.0,0.0,0.0,0.0,0.0,0.0,0.0
23,24.0,0.00477091,0.0172282,0.010583,0.0587536,0.0845631,0.125597