File: R/rHDPE_App/app/www/Output/SAXS/Features/Mean_Features.csv
,sample,SAXS_LP,SAXS_A,SAXS_Xc,SAXS_lc,SAXS_la,SAXS_TMF,SAXS_MP,SAXS_Crystallinity,SAXS_MW,SAXS_0SV,SAXS_V_at_MS,SAXS_AI,SAXS_AC,SAXS_t
0,11.0,0.057971,0.1,0.452376,0.0582997,0.13204,0.684399,0.584034,0.547619,0.006014,1.13633e-06,0.143332,0.362069,0.361345,0.121053
1,10.0,0.318841,0.4,0.528871,0.30321,0.450582,0.693963,0.138655,0.190476,0.0123449,3.62733e-06,0.166207,0.448276,0.305042,0.136842
2,4.0,1.0,1.0,0.935707,1.0,1.0,0.0,0.504202,0.595238,0.00157497,2.09797e-07,0.00433211,0.310345,0.301681,0.115789
3,13.0,0.144928,0.4,0.0,0.0677278,0.593992,0.800956,0.231092,0.240476,0.0161378,6.00262e-06,0.231699,0.327586,0.218487,0.178947
4,21.0,0.217391,0.4,0.239372,0.167203,0.527547,0.99462,0.205882,0.333333,0.340471,0.028074,0.0706934,0.293103,0.358824,0.126316
5,23.0,0.304348,0.5,0.274922,0.249114,0.632376,0.978482,0.231092,0.0,0.153474,0.00219453,0.145291,0.517241,0.181513,0.173684
6,18.0,0.23913,0.45,0.190813,0.17861,0.598448,1.0,0.315126,0.428571,1.0,1.0,0.0415138,0.603448,0.570588,0.0789474
7,22.0,0.304348,0.5,0.274922,0.249114,0.632376,0.922893,0.403361,0.595238,0.0565774,0.000116027,0.202505,0.534483,0.337815,0.152632
8,20.0,0.210145,0.4,0.216795,0.157355,0.533703,0.91572,0.415966,0.404762,0.0464163,6.82377e-05,0.352156,0.0,0.278992,0.0
9,2.0,0.304348,0.6,0.0472188,0.21226,0.813957,0.763299,0.483193,0.142857,0.0166887,6.41414e-06,0.114884,0.327586,0.241176,0.131579
10,3.0,0.565217,0.75,0.461244,0.511886,0.862912,0.743574,1.0,0.571429,0.0229499,1.24653e-05,0.108427,0.258621,0.517647,0.0842105
11,17.0,0.0,0.0,0.513539,0.0152111,0.00540147,0.918111,0.533613,0.190476,0.0372902,3.89308e-05,0.461025,0.87931,1.0,0.0684211
12,16.0,0.123188,0.1,0.641826,0.144618,0.0880533,0.563658,0.0,0.452381,0.00179975,2.44182e-07,0.223614,1.0,0.969748,1.0
13,19.0,0.0144928,0.1,0.313766,0.0,0.16508,0.542738,0.323529,0.928571,0.0,0.0,0.0632157,0.586207,0.0,0.405263
14,1.0,0.101449,0.1,0.58093,0.115981,0.102048,0.827854,0.579832,0.690476,0.0195291,8.83037e-06,0.126004,0.517241,0.523529,0.105263
15,15.0,0.268116,0.1,1.0,0.332765,0.00839657,0.698745,0.987395,0.619048,0.0123317,3.62034e-06,0.182873,0.586207,0.893277,0.0631579
16,12.0,0.130435,0.3,0.200495,0.0852377,0.422987,0.913927,0.5,0.595238,0.041365,5.06113e-05,0.238914,0.37931,0.342017,0.131579
17,6.0,0.137681,0.05,0.788297,0.179688,0.0,0.786013,0.231092,0.761905,0.0158802,5.81705e-06,0.281822,0.344828,0.185714,0.163158
18,5.0,0.217391,0.5,0.0,0.12995,0.711092,0.786611,0.294118,1.0,0.0165736,6.32627e-06,0.0,0.189655,0.191597,0.147368
19,7.0,0.202899,0.2,0.641087,0.216611,0.199381,0.735804,0.306723,0.452381,0.0128006,3.87337e-06,0.294666,0.396552,0.310924,0.131579
20,9.0,0.282609,0.55,0.0947508,0.201139,0.741649,0.829647,0.378151,0.452381,0.0246726,1.46283e-05,0.299536,0.344828,0.168908,0.210526
21,8.0,0.108696,0.35,0.0,0.0366165,0.535442,0.933652,0.172269,0.333333,0.0501319,8.3689e-05,1.0,0.586207,0.296639,0.142105