File: R/rHDPE_App/Input/DSC/Mean_Features.csv
,sample,DSC_HFM_160,DSC_C_HalfPeak,DSC_M_HalfPeak,DSC_HFC_102,DSC_Crystallininty
0,11.0,0.110092,0.668011,0.658699,0.545073,0.386957
1,14.0,0.0756881,0.529234,0.531873,0.487421,0.613043
2,10.0,0.195719,0.383065,0.49668,0.39413,0.417391
3,4.0,0.159021,0.416667,0.463479,0.285115,0.565217
4,13.0,0.13211,0.456452,0.534661,0.444025,0.408696
5,21.0,0.486239,0.572581,0.648074,0.167715,0.495652
6,23.0,0.969419,0.333333,0.386454,0.0607966,0.0
7,18.0,0.552752,0.766129,0.676295,0.143082,0.36087
8,22.0,0.502294,0.678427,0.691235,0.218553,0.43913
9,20.0,0.550459,0.697581,0.656042,0.115304,0.491304
10,2.0,0.0550459,0.479839,0.438247,0.436059,0.573913
11,3.0,0.040367,0.320968,0.407968,0.378616,0.647826
12,17.0,0.00611621,0.444892,0.237716,0.440252,0.778261
13,16.0,0.00458716,0.455645,0.683267,0.940252,0.66087
14,19.0,0.00458716,0.445565,0.605578,0.68239,0.952174
15,1.0,0.00611621,0.697581,0.596282,0.549266,0.626087
16,15.0,0.0183486,0.576613,0.494024,0.412998,1.0
17,12.0,0.0214067,0.477151,0.436919,0.444444,0.743478
18,6.0,0.00611621,0.686828,0.795485,0.708595,0.465217
19,5.0,0.0519878,0.568548,0.594954,0.503145,0.443478
20,7.0,0.0428135,0.650538,0.77822,0.626834,0.5
21,9.0,0.0458716,0.0826613,0.199203,0.339623,0.46087
22,8.0,0.00611621,0.447581,0.527224,0.494759,0.321739
23,24.0,0.0030581,0.563172,0.38911,0.461216,0.678261