File: R/rHDPE_App/Input/DSC/Std_of_Features.csv
,sample,DSC_HFM_160,DSC_C_HalfPeak,DSC_M_HalfPeak,DSC_HFC_102,DSC_Crystallininty
0,11.0,0.00917431,0.106285,0.103185,0.0525365,0.0
1,14.0,0.00439187,0.09517,0.116898,0.0433841,0.0
2,10.0,0.0244648,0.0423547,0.0665205,0.0325454,0.0
3,4.0,0.0030581,0.0505955,0.0356593,0.00209644,0.0
4,13.0,0.00944553,0.0715018,0.0653362,0.0300047,0.0
5,21.0,0.00529679,0.0689033,0.088261,0.0551088,0.0
6,23.0,0.0186017,0.0261666,0.0242341,0.0137473,0.0
7,18.0,0.0454684,0.0834849,0.0891068,0.0344838,0.0
8,22.0,0.0302833,0.0361172,0.0467597,0.0184036,0.0
9,20.0,0.0242729,0.0685484,0.0726052,0.0576806,0.0
10,2.0,0.0,0.0262355,0.0119522,0.0151176,0.0
11,3.0,0.00224724,0.104174,0.121096,0.0384317,0.0
12,17.0,0.0030581,0.0968955,0.104762,0.0508359,0.0
13,16.0,0.00458716,0.0241935,0.0139442,0.0597484,0.0
14,19.0,0.00458716,0.0383065,0.0517928,0.00943396,0.0
15,1.0,0.0030581,0.0524194,0.065073,0.0230608,0.0
16,15.0,0.0,0.117997,0.145423,0.0472513,0.0
17,12.0,0.0030581,0.040746,0.0200966,0.0348916,0.0
18,6.0,0.0030581,0.10526,0.104332,0.0974561,0.0
19,5.0,0.0030581,0.034294,0.016319,0.00628931,0.0
20,7.0,0.0030581,0.0896919,0.0978149,0.0721064,0.0
21,9.0,0.0,0.0383065,0.111554,3.77476e-15,0.0
22,8.0,0.0030581,0.0708041,0.0673112,0.0308824,0.0
23,24.0,0.0030581,0.0117175,0.0274422,0.00755881,0.0