File: R/rHDPE_App/app/www/Output/DSC/Features/Features.csv
,DSC_HFC_120,DSC_TC_120,DSC_HFC_80,DSC_TC_Max,DSC_HFC_Max,DSC_TM_Max,DSC_HFM_Max,DSC_HFM_160,DSC_C_HalfPeak,DSC_M_HalfPeak,DSC_HFC_102,DSC_C_Onset,DSC_M_Onset,DSC_Crystallinity,DSC_fPP,DSC_Melt_Temp
0,0.211109,123.773,0.00383269,117.651,2.993,132.593,-2.661,0.000166639,9.102,10.562,0.00632911,123.813,141.414,69.5428,0.0,136.394
2,0.227265,123.632,0.00366606,118.412,3.018,132.133,-2.702,0.000583236,8.002,9.722,0.00491339,123.572,140.214,65.6134,0.440037,134.833
4,0.239007,123.632,0.00383269,118.312,3.297,132.353,-2.786,0.000583236,7.621,9.502,0.00424717,123.672,139.954,68.4155,0.577027,135.313
6,0.248418,123.652,0.00333278,118.131,3.377,133.333,-2.714,0.000416597,8.142,10.622,0.00499667,123.793,141.974,70.1708,0.0,137.334
8,0.284893,123.913,0.00333278,119.212,3.606,132.693,-2.997,0.000416597,7.181,9.382,0.00349767,123.833,140.994,69.433,0.244887,136.194
10,0.25991,124.213,0.00366606,119.432,3.317,132.273,-2.788,0.00149975,7.421,9.622,0.00258161,124.073,140.554,66.2235,1.36971,135.473
12,0.263907,124.353,0.00333278,119.952,3.34,132.233,-2.797,0.00158307,7.301,9.482,0.00249833,124.153,140.614,65.8133,1.32646,135.113
14,0.230846,123.312,0.00316614,118.011,3.05,131.533,-2.584,0.000499917,7.982,10.081,0.00549634,123.252,139.534,66.0121,0.528092,134.373
16,0.227629,122.632,0.00233256,117.491,3.038,130.913,-2.509,0.000166639,8.102,10.701,0.00641239,122.712,139.814,67.1814,0.0,133.973
18,0.205382,122.432,0.00233294,116.571,3.0,131.473,-2.478,0.000166639,8.382,10.481,0.00732845,122.552,139.534,66.8543,0.0800942,134.733
20,0.192955,123.032,0.00316614,116.711,2.815,133.533,-2.328,0.000499917,9.362,11.702,0.00891073,123.092,141.114,67.6434,0.300277,135.853
22,0.197285,122.852,0.00233294,117.371,2.826,131.213,-2.425,8.33194e-05,8.242,10.281,0.005996,122.812,139.174,63.1423,0.0,133.633
24,0.240673,122.972,0.00233294,118.171,3.132,130.733,-2.636,0.000166556,7.262,9.421,0.00458028,122.872,138.254,64.1437,0.0,133.113
26,0.301549,123.532,0.00316614,119.152,3.818,131.693,-3.052,0.000499917,5.821,7.981,0.00324783,123.532,137.934,66.2309,0.452735,133.773
28,0.240756,123.252,0.00316614,119.012,3.025,130.933,-2.506,0.00208299,7.502,9.881,0.00483011,123.092,139.434,63.3223,1.89953,133.173
30,0.20428,123.612,0.00349942,117.911,2.779,131.473,-2.432,0.00116647,9.142,10.962,0.00657895,123.572,141.014,66.1691,0.717698,134.813
32,0.21061,123.753,0.00333222,118.171,2.821,131.613,-2.499,0.000916514,9.002,10.642,0.0067455,123.692,140.934,66.8544,0.64695,134.733
34,0.2495,123.833,0.00416597,118.632,3.331,131.773,-2.915,0.000333278,7.801,9.621,0.004497,123.873,139.794,70.2318,0.41696,134.993
36,0.247835,123.392,0.00316614,118.512,3.227,131.813,-2.565,0.000999833,7.041,9.761,0.00391406,123.352,139.294,64.7974,1.04971,134.233
38,0.25991,123.712,0.00366544,119.432,3.253,131.013,-2.735,0.00141643,7.021,9.301,0.00383078,123.512,138.754,65.3435,1.43665,133.873
40,0.213691,123.312,0.00333222,117.691,2.922,131.693,-2.479,0.00124979,8.142,10.142,0.00541306,123.272,139.694,65.1299,1.08883,134.773
42,0.203781,123.612,0.00333278,117.791,2.856,131.913,-2.381,0.000749875,9.022,11.302,0.00666222,123.592,140.914,66.733,0.390883,135.473
44,0.242255,123.793,0.00316614,119.012,3.118,131.673,-2.702,0.000833194,7.861,9.661,0.00466356,123.732,140.074,66.6364,0.672813,134.453
46,0.255041,125.053,0.0044985,119.852,3.445,133.313,-3.116,0.000249958,8.461,9.682,0.00416389,125.113,142.455,72.8395,0.0,136.694
48,0.288035,125.153,0.00433189,120.212,3.833,133.053,-3.343,0.000249958,7.421,8.862,0.00316456,125.273,141.314,73.2495,0.0,136.554
50,0.241126,120.512,0.00116647,114.971,3.118,131.653,-2.384,8.33194e-05,7.621,10.661,0.011992,120.612,139.534,66.4194,0.0,134.553
52,0.215523,123.432,0.00216631,117.451,3.143,131.773,-2.893,0.000166639,8.462,9.481,0.00574617,123.532,139.974,68.9914,0.0,134.833
54,0.257995,123.532,0.00233294,118.552,3.437,131.393,-3.15,0.000166639,7.822,8.621,0.00458028,123.612,139.674,70.3881,0.0,134.053
56,0.190456,124.173,0.00399867,118.552,2.778,132.133,-2.494,0.00491585,8.281,9.782,0.000333111,124.253,139.974,63.0495,4.84312,135.033
58,0.190706,123.993,0.00366606,118.672,2.636,131.573,-2.411,0.00416597,8.842,10.262,0.00199867,123.913,139.934,63.0293,3.76686,133.873
60,0.378664,122.992,0.00566572,118.992,4.611,132.933,-3.221,8.33194e-05,5.161,8.622,0.00391406,122.672,140.194,72.4699,0.0,135.833
62,0.191039,123.592,0.00333222,117.931,2.68,131.533,-2.433,0.00466589,9.042,10.542,0.00108261,123.632,139.994,65.3304,4.46217,134.353
64,0.183211,123.252,0.00316561,117.631,2.71,132.333,-2.339,0.00516581,9.022,10.902,0.000999334,123.352,140.454,65.8153,4.88534,134.833
66,0.207299,122.572,0.00249958,117.231,2.799,131.573,-2.332,0.00449925,7.862,9.881,0.0007495,122.612,139.594,61.2771,4.4932,134.233
68,0.199633,122.492,0.00149975,116.711,2.859,131.573,-2.34,0.00458257,7.942,10.141,-0.000166556,122.672,139.214,63.0438,4.9734,134.513
70,0.197452,123.732,0.00366606,117.971,2.748,131.713,-2.39,0.00466589,8.602,10.442,0.00108261,123.672,140.354,64.347,4.46564,134.853
72,0.205946,123.572,0.00399867,117.931,2.808,131.613,-2.41,0.00424929,8.262,10.282,0.00191539,123.512,139.874,63.8804,4.05467,134.773
74,0.22993,123.572,0.00283239,119.292,3.016,131.173,-2.438,0.00891518,6.861,9.001,-0.000583236,123.412,138.934,59.344,9.45335,133.053
76,0.229763,123.933,0.00233294,118.692,3.158,131.633,-2.875,8.33194e-05,8.322,9.501,0.00466356,124.013,140.194,68.9727,0.0,134.693
78,0.22968,123.813,0.00266622,118.492,3.135,131.833,-2.939,8.33194e-05,8.222,9.101,0.00499667,123.853,140.014,68.1364,0.0,134.653
80,0.51957,123.012,0.00366606,119.012,6.348,132.493,-4.189,8.33194e-05,4.401,7.341,0.0022485,122.652,140.414,76.4508,0.0,136.074
82,0.446342,122.312,0.00349942,118.272,5.531,132.753,-3.566,8.33194e-05,5.401,8.822,0.00291472,122.272,141.014,74.8649,0.0,136.554
84,0.300533,121.232,0.00349942,116.231,5.062,132.273,-3.826,8.33194e-05,6.142,7.722,0.00383078,121.952,140.954,73.7922,0.0,136.234
86,0.26129,121.072,0.00366606,115.971,4.6,132.733,-3.471,0.000166639,7.181,9.242,0.00499667,121.792,141.694,74.2631,0.0,137.554
88,0.281036,120.892,0.00349942,115.871,5.148,132.493,-3.761,0.000166639,5.921,7.902,0.00408061,121.732,141.034,73.7776,0.0,136.374
90,0.287891,124.273,0.00333278,119.052,3.878,133.073,-3.276,8.33194e-05,7.641,9.702,0.00308128,124.413,141.534,75.4318,0.0,137.014
92,0.306199,124.973,0.00483253,120.492,4.016,133.613,-3.38,8.33194e-05,7.601,9.742,0.00324783,125.133,142.575,76.3203,0.0,138.134
94,0.474101,124.413,0.00366606,120.392,5.779,132.233,-3.949,0.00366606,4.281,7.161,0.000581168,124.053,139.854,72.8683,2.69635,135.413
96,0.165639,122.732,0.00349942,116.851,2.322,132.613,-2.17,0.000499917,11.382,12.462,0.0137408,122.712,143.295,62.2715,0.0,134.553
98,0.299467,123.192,0.00116628,119.072,3.783,132.353,-3.26,0.000499917,5.981,7.201,0.00433045,123.232,138.374,66.5183,0.468427,133.853
100,0.174217,123.552,0.00399867,117.591,2.635,133.513,-2.515,0.00433261,9.302,9.702,0.00258161,123.632,141.174,62.9689,2.77732,135.713
102,0.248085,123.232,0.00416597,117.951,3.406,132.753,-3.077,0.000166556,8.882,9.722,0.00807795,123.472,141.814,75.3265,0.0,135.993
104,0.210027,122.992,0.00416597,117.171,2.993,133.853,-2.526,0.000416597,10.702,12.762,0.0136576,123.272,144.895,70.3835,0.0,138.234
106,0.169054,122.872,0.002999,116.091,2.677,133.673,-2.246,0.000499917,9.342,11.482,0.00816123,122.872,141.034,64.4182,0.0,136.274
108,0.216881,122.492,0.00349942,117.191,2.941,131.853,-2.556,0.00199967,8.242,9.762,0.00641239,122.692,140.174,65.2899,1.66884,134.673
110,0.274817,123.212,0.00333222,118.532,3.631,132.133,-2.896,0.000999833,6.701,8.901,0.00366422,123.372,139.414,67.0312,1.01036,134.593
112,0.212358,123.052,0.00416597,117.311,3.098,132.833,-2.807,0.000249958,8.982,10.042,0.00799467,123.252,141.414,70.1745,0.0,136.174
114,0.239757,123.132,0.00483253,117.551,3.452,132.573,-3.065,0.000333278,8.502,9.742,0.00707861,123.392,140.994,75.1117,0.0974019,136.214
116,0.259244,122.832,0.00366544,118.111,3.386,131.673,-2.83,0.00133311,7.201,8.821,0.0052465,123.052,139.514,66.9327,1.29933,134.113
118,0.225183,123.112,0.00349883,117.751,3.098,132.413,-2.809,0.000916514,8.382,9.542,0.00707861,123.272,140.734,68.6111,0.56595,135.413
120,0.209277,122.952,0.00349883,117.331,2.95,132.693,-2.731,0.000749875,9.102,10.002,0.00882745,123.192,141.334,69.1667,0.0384404,135.813
122,0.261326,124.093,0.00449925,118.612,3.768,133.773,-3.329,0.000249958,8.462,9.642,0.0052465,124.373,142.575,77.5134,0.0,137.694
124,0.250708,120.392,0.00183303,115.451,3.172,131.873,-2.536,0.000333278,8.141,10.262,0.0141572,120.772,140.574,68.5019,0.0,134.893
126,0.225712,122.252,0.00216631,116.251,3.665,131.593,-3.097,0.000333278,7.782,9.181,0.00649567,122.592,139.814,72.2232,0.0,134.973
128,0.162808,123.252,0.00349883,117.051,2.622,132.493,-2.376,0.00533244,9.522,10.582,0.00233178,123.292,141.174,64.7151,5.14239,135.653
130,0.267539,121.572,0.00633122,116.431,3.409,134.133,-2.682,8.33194e-05,9.302,11.682,0.0152398,121.912,144.055,74.7967,0.0,138.314
132,0.171388,122.592,0.00283286,116.351,2.7,132.433,-2.334,0.00458257,9.582,11.322,0.00441372,122.672,141.294,67.0648,4.44741,135.593
134,0.181053,122.732,0.00283286,117.111,2.69,132.153,-2.362,0.00466589,8.622,10.082,0.00183211,122.892,140.314,62.0281,4.79281,134.533
136,0.240834,121.852,0.00283239,116.771,3.335,132.193,-2.701,0.00483253,7.262,9.161,0.00208195,122.172,139.574,66.6246,4.53418,134.613
138,0.203115,122.932,0.00399867,117.411,2.892,132.273,-2.517,0.00658224,8.542,9.942,0.000666222,123.132,140.614,65.9936,5.96233,135.173
140,0.173888,122.712,0.00383206,116.751,2.587,132.673,-2.319,0.00466589,9.722,10.962,0.00624584,122.852,141.834,63.6054,3.38594,135.373
142,0.148059,121.712,0.00283286,116.151,2.333,133.593,-2.015,0.00716547,8.642,9.922,0.00291472,121.712,141.374,51.1035,6.14299,134.133
144,0.136242,122.832,0.00283239,116.311,2.333,134.073,-1.899,0.00866522,9.702,11.642,0.00458028,122.792,141.154,57.5581,8.44016,134.073
146,0.231596,123.272,0.00283286,117.931,3.339,131.993,-3.003,8.33194e-05,8.122,9.202,0.00541306,123.452,140.314,69.3858,0.0,135.173
148,0.187292,122.992,0.00249958,116.771,2.932,132.853,-2.747,8.33194e-05,9.682,10.222,0.00957695,123.152,141.634,70.0556,0.0,136.114