File: R/rHDPE_App/app/www/Output/DSC/Features/Mean_Features_Unnormalised_1.csv
,sample,DSC_Crystallinity,DSC_fPP
0,1.0,69.5124,0.0
1,2.0,67.2991,0.494087
2,3.0,69.6268,0.187095
3,4.0,65.6219,1.3498
4,5.0,66.2701,0.439388
5,6.0,66.7566,0.0266981
6,7.0,67.9544,0.375679
7,8.0,63.3424,0.0
8,9.0,66.5572,0.482916
9,10.0,63.3391,1.76739
10,11.0,66.2755,0.787708
11,12.0,70.7305,0.217848
12,13.0,65.1356,1.18898
13,14.0,67.1154,0.648805
14,15.0,72.9456,0.0
15,16.0,67.0805,0.0
16,17.0,69.6392,0.0
17,18.0,62.7654,4.93195
18,19.0,72.5794,0.0
19,20.0,64.7467,4.94724
20,21.0,61.7331,4.07652
21,22.0,63.6814,4.41689
22,23.0,58.9981,9.33946
23,24.0,68.5079,0.0
24,25.0,74.9547,0.0
25,26.0,73.6048,0.0
26,27.0,75.2583,0.0
27,28.0,72.6838,2.2906
28,40.0,64.93,0.156142
29,41.0,63.2462,3.64118
30,101.0,75.3265,0.0
31,102.0,70.6865,0.204502
32,103.0,70.3835,0.0
33,104.0,69.6285,1.43203
34,109.0,64.4182,0.0
35,110.0,65.4408,1.69856
36,111.0,65.9302,0.724894
37,112.0,71.7812,0.0324673
38,113.0,66.8956,1.29078
39,114.0,69.422,0.325873
40,115.0,77.1683,0.0
41,116.0,69.3038,0.0
42,117.0,72.043,0.0
43,118.0,64.1725,4.65943
44,119.0,74.3348,0.0
45,120.0,65.4207,4.51312
46,121.0,65.9558,4.52276
47,122.0,64.8858,4.82845
48,123.0,56.2441,7.71727
49,124.0,70.431,0.0