File: R/rHDPE_App/app/www/Output/DSC/Features/Mean_Features_1.csv
,sample,DSC_Crystallinity,DSC_fPP
0,1.0,0.756531,0.0
1,2.0,0.612334,0.0522657
2,3.0,0.763986,0.0197914
3,4.0,0.503061,0.142785
4,5.0,0.545291,0.0464796
5,6.0,0.576988,0.00282419
6,7.0,0.655028,0.0397403
7,8.0,0.354554,0.0
8,9.0,0.563995,0.0510841
9,10.0,0.354338,0.186959
10,11.0,0.545645,0.0833257
11,12.0,0.835886,0.0230445
12,13.0,0.471381,0.125773
13,14.0,0.600366,0.0686322
14,15.0,0.980202,0.0
15,16.0,0.598091,0.0
16,17.0,0.764788,0.0
17,18.0,0.31696,0.521714
18,19.0,0.956346,0.0
19,20.0,0.446042,0.523331
20,21.0,0.249706,0.431224
21,22.0,0.376641,0.46723
22,23.0,0.071522,0.987952