File: R/rHDPE_App/app/www/Output/DSC/Features/Mean_Features.csv
,sample,DSC_C_HalfPeak,DSC_M_HalfPeak,DSC_C_Onset,DSC_M_Onset,DSC_Crystallinity
0,16.0,0.832416,0.878746,0.118619,0.494887,0.065902
1,17.0,0.827713,0.433379,0.624162,0.308947,0.320967
2,19.0,0.628398,0.674636,0.399633,0.710863,0.614072
3,24.0,0.775114,0.422891,0.717221,0.355074,0.208194
4,25.0,0.172208,0.339014,0.380216,0.617893,0.850862
5,26.0,0.504233,0.392175,0.22114,0.696846,0.716292
6,27.0,0.64817,0.512942,0.883499,0.802457,0.881121
7,28.0,0.312525,0.461174,0.686436,0.660874,0.624474