File: R/rHDPE_App/app/www/Output/DSC/Features/Mean_Features_Unnormalised.csv
,sample,DSC_C_HalfPeak,DSC_M_HalfPeak,DSC_C_Onset,DSC_M_Onset,DSC_Crystallinity
0,1.0,8.722,10.142,123.943,141.184,69.5124
1,2.0,7.86133,9.54833,123.679,140.047,67.2991
2,3.0,7.2014,9.5618,123.9408,141.242,69.6268
3,4.0,7.608,9.74867,124.02,140.694,65.6219
4,5.0,8.242,10.2617,123.232,139.947,66.2701
5,6.0,8.71533,11.0347,122.585,140.107,66.7566
6,7.0,8.562,10.9553,123.145,140.461,67.9544
7,8.0,7.602,9.67433,122.792,138.734,63.3424
8,9.0,5.981,8.441,123.502,138.174,66.5572
9,10.0,7.30833,9.681,123.099,139.147,63.3391
10,11.0,8.58833,10.3817,123.679,140.494,66.2755
11,12.0,7.83467,9.59467,123.859,140.001,70.7305
12,13.0,7.6654,9.9294,123.38,139.39,65.1356
13,14.0,7.4494,9.4134,123.772,139.63,67.1154
14,15.0,8.37467,9.87533,124.96,142.095,72.9456
15,16.0,7.76133,10.8883,121.172,140.221,67.0805
16,17.0,7.74167,8.63433,123.559,139.354,69.6392
17,18.0,9.01675,10.447,123.968,140.319,62.7654
18,19.0,6.90833,9.85533,122.499,141.227,72.5794
19,20.0,8.722,10.435,123.485,139.921,64.7467
20,21.0,8.797,10.8015,122.497,140.369,61.7331
21,22.0,8.657,10.637,123.542,140.344,63.6814
22,23.0,7.041,9.181,123.332,139.101,58.9981
23,24.0,7.52175,8.58125,123.998,139.569,68.5079
24,25.0,5.001,8.15675,122.407,140.794,74.9547
25,26.0,6.3892,8.4258,121.656,141.162,73.6048
26,27.0,6.991,9.037,124.783,141.654,75.2583
27,28.0,5.58767,8.775,123.853,140.994,72.6838
28,40.0,8.795,9.70167,122.985,140.854,64.93
29,41.0,8.455,8.98167,123.746,140.374,63.2462
30,101.0,8.882,9.722,123.472,141.814,75.3265
31,102.0,9.022,10.262,123.192,141.174,70.6865
32,103.0,10.702,12.762,123.272,144.895,70.3835
33,104.0,7.001,8.262,123.672,140.554,69.6285
34,109.0,9.342,11.482,122.872,141.034,64.4182
35,110.0,8.012,9.6115,122.742,139.974,65.4408
36,111.0,7.60167,9.18133,123.119,140.274,65.9302
37,112.0,9.042,10.1953,123.239,141.488,71.7812
38,113.0,6.888,8.521,123.072,139.207,66.8956
39,114.0,8.75533,9.79533,123.232,141.047,69.422
40,115.0,8.81533,10.0287,124.3,142.848,77.1683
41,116.0,8.441,10.822,121.002,141.4045,69.3038
42,117.0,7.702,9.011,122.632,139.884,72.043
43,118.0,9.842,10.972,123.102,141.324,64.1725
44,119.0,9.012,11.232,121.922,143.635,74.3348
45,120.0,9.20867,10.7287,122.812,140.961,65.4207
46,121.0,8.14867,10.135,122.112,140.347,65.9558
47,122.0,9.09533,10.5553,123.005,141.221,64.8858
48,123.0,9.102,10.682,122.222,141.279,56.2441
49,124.0,8.15675,9.782,123.372,141.029,70.431