File: R/rHDPE_App/app/www/Output/DSC/Features/Std_of_Features_1.csv
,sample,DSC_Crystallinity,DSC_fPP
0,1.0,0.00197729,0.0
1,2.0,0.0558676,0.00445359
2,3.0,0.026896,0.00847803
3,4.0,0.0269598,0.00133329
4,5.0,0.0770331,0.00943249
5,6.0,0.0180996,0.00282419
6,7.0,0.0199884,0.00800644
7,8.0,0.0271684,0.0
8,9.0,0.0212549,0.0031927
9,10.0,0.00243993,0.0150336
10,11.0,0.0200757,0.0113552
11,12.0,0.0187488,0.0127711
12,13.0,0.00705293,0.00890079
13,14.0,0.0251372,0.00875201
14,15.0,0.0100483,0.0
15,16.0,0.0359495,0.0
16,17.0,0.026474,0.0
17,18.0,0.0154999,0.0496848
18,19.0,0.00997835,0.0
19,20.0,0.054592,0.0316848
20,21.0,0.0400866,0.0588663
21,22.0,0.0405454,0.032153
22,23.0,0.0365673,0.0110917