File: R/rHDPE_App/app/www/Output/DSC/Features/Std_of_Features_Unnormalised.csv
,sample,DSC_C_HalfPeak,DSC_M_HalfPeak,DSC_C_Onset,DSC_M_Onset,DSC_Crystallinity
0,1.0,0.38,0.42,0.13,0.23,0.0303497
1,2.0,0.120748,0.0899265,0.0638931,0.0835331,0.857519
2,3.0,0.485969,0.560775,0.110684,0.397534,0.412829
3,4.0,0.249417,0.200776,0.096148,0.111355,0.41381
4,5.0,0.170098,0.0905176,0.0757188,0.242579,1.18239
5,6.0,0.480185,0.448189,0.0656591,0.440807,0.277813
6,7.0,0.431432,0.451565,0.0437163,0.350492,0.306805
7,8.0,0.320208,0.304704,0.052915,0.266333,0.41701
8,9.0,0.16,0.46,0.03,0.24,0.326243
9,10.0,0.193667,0.305505,0.0751295,0.187735,0.0374508
10,11.0,0.485352,0.430364,0.0583866,0.480555,0.308144
11,12.0,0.20306,0.116505,0.081405,0.226961,0.287778
12,13.0,0.325277,0.279754,0.0445421,0.240782,0.108256
13,14.0,0.675386,0.661537,0.0912034,0.542306,0.385834
14,15.0,0.527447,0.648108,0.237861,0.390717,0.154232
15,16.0,0.0703807,0.310247,0.329242,0.543609,0.551793
16,17.0,0.440908,0.48502,0.0266667,0.477912,0.406352
17,18.0,0.354327,0.341504,0.101448,0.279687,0.23791
18,19.0,0.879826,0.636064,0.0866667,0.523874,0.153159
19,20.0,0.310054,0.305236,0.0811035,0.331126,0.837939
20,21.0,0.641424,0.518777,0.142215,0.681182,0.615294
21,22.0,0.147507,0.187328,0.0544671,0.168226,0.622336
22,23.0,0.117189,0.103923,0.046188,0.176761,0.561275
23,24.0,0.720851,0.718088,0.113541,0.553014,0.183655
24,25.0,0.25807,0.365095,0.0838153,0.168523,0.723303
25,26.0,0.421615,0.380787,0.119566,0.306242,0.269732
26,27.0,0.597188,0.711963,0.265016,0.331391,0.679338
27,28.0,0.734151,0.842644,0.110424,0.676461,0.436135
28,40.0,1.56326,1.52426,0.150702,1.42071,1.33764
29,41.0,0.464502,0.421877,0.0854407,0.440606,0.417392
30,101.0,0.0,0.0,0.0,0.0,0.0
31,102.0,0.0,0.0,0.0,0.0,0.0
32,103.0,0.0,0.0,0.0,0.0,0.0
33,104.0,0.0,0.0,0.0,0.0,0.0
34,109.0,0.0,0.0,0.0,0.0,0.0
35,110.0,0.23,0.1505,0.05,0.2,0.15089
36,111.0,0.608961,0.494018,0.139204,0.49085,1.42694
37,112.0,0.330454,0.315454,0.0926163,0.308491,1.6656
38,113.0,0.33371,0.270555,0.052915,0.296723,0.35735
39,114.0,0.208273,0.134825,0.023094,0.173718,0.556665
40,115.0,0.286201,0.198774,0.0733333,0.175246,0.486129
41,116.0,0.3,0.56,0.23,0.8305,0.801944
42,117.0,0.08,0.17,0.04,0.07,0.180194
43,118.0,0.32,0.39,0.19,0.15,0.54265
44,119.0,0.29,0.45,0.01,0.42,0.461973
45,120.0,0.296947,0.358949,0.0702377,0.323385,1.69654
46,121.0,0.462793,0.48823,0.113725,0.392825,0.356904
47,122.0,0.342604,0.312054,0.0819214,0.352199,0.694794
48,123.0,0.34477,0.472088,0.230579,0.28941,1.72919
49,124.0,0.816579,0.231948,0.0734847,0.276451,0.718835