File: R/rHDPE_App/app/www/Output/DSC/Features/Std_of_Features_Unnormalised_1.csv
,sample,DSC_Crystallinity,DSC_fPP
0,1.0,0.0303497,0.0
1,2.0,0.857519,0.0421014
2,3.0,0.412829,0.0801458
3,4.0,0.41381,0.012604
4,5.0,1.18239,0.0891687
5,6.0,0.277813,0.0266981
6,7.0,0.306805,0.0756877
7,8.0,0.41701,0.0
8,9.0,0.326243,0.0301817
9,10.0,0.0374508,0.142118
10,11.0,0.308144,0.107344
11,12.0,0.287778,0.12073
12,13.0,0.108256,0.0841423
13,14.0,0.385834,0.0827358
14,15.0,0.154232,0.0
15,16.0,0.551793,0.0
16,17.0,0.406352,0.0
17,18.0,0.23791,0.469688
18,19.0,0.153159,0.0
19,20.0,0.837939,0.299528
20,21.0,0.615294,0.556484
21,22.0,0.622336,0.303954
22,23.0,0.561275,0.104854
23,24.0,0.183655,0.0
24,25.0,0.723303,0.0
25,26.0,0.269732,0.0
26,27.0,0.679338,0.0
27,28.0,0.436135,0.284615
28,40.0,1.33764,0.156142
29,41.0,0.417392,0.452901
30,101.0,0.0,0.0
31,102.0,0.0,0.0
32,103.0,0.0,0.0
33,104.0,0.0,0.0
34,109.0,0.0,0.0
35,110.0,0.15089,0.0297159
36,111.0,1.42694,0.143261
37,112.0,1.6656,0.0324673
38,113.0,0.35735,0.00730911
39,114.0,0.556665,0.154109
40,115.0,0.486129,0.0
41,116.0,0.801944,0.0
42,117.0,0.180194,0.0
43,118.0,0.54265,0.482955
44,119.0,0.461973,0.0
45,120.0,1.69654,0.146253
46,121.0,0.356904,0.173958
47,122.0,0.694794,0.75958
48,123.0,1.72919,0.568575
49,124.0,0.718835,0.0