File: R/rHDPE_App/app/www/Output/DSC/Features/Std_of_Features.csv
,sample,DSC_C_HalfPeak,DSC_M_HalfPeak,DSC_C_Onset,DSC_M_Onset,DSC_Crystallinity
0,16.0,0.0168335,0.0613016,0.0697398,0.116629,0.0550067
1,17.0,0.105455,0.0958348,0.00564852,0.102534,0.0405081
2,19.0,0.210434,0.12568,0.0183577,0.112395,0.015268
3,24.0,0.172411,0.141887,0.0240503,0.118647,0.018308
4,25.0,0.0617244,0.0721389,0.0177537,0.036156,0.072104
5,26.0,0.100841,0.0752394,0.0253264,0.065703,0.0268888
6,27.0,0.142834,0.140676,0.0561355,0.0710987,0.0677213
7,28.0,0.175592,0.166498,0.0233899,0.145132,0.0434771