File: R/rHDPE_App/app/www/Output/TGA/Condensed_Data/Resin24_2_.csv
0.8800000,30,13.996,100.027,0.0031648
1.16,32.3004,13.997,100.035,0.0029767
1.42,34.6008,13.997,100.039,-0.0001016
1.67,36.9012,13.998,100.043,0.0030673
1.92,39.2016,13.998,100.046,0.0013166
2.16,41.5021,13.999,100.05,0.0008710
2.4,43.8025,13.999,100.053,0.0024481
2.64,46.1029,14,100.056,0.0015280
2.88,48.4033,14,100.06,0.0011855
3.12,50.7037,14.001,100.063,0.0011798
3.36,53.0041,14.001,100.067,0.0012673
3.59,55.3045,14.002,100.07,0.0008878
3.83,57.6049,14.002,100.073,0.0013042
4.06,59.9053,14.002,100.076,0.0012542
4.29,62.2058,14.003,100.078,0.0012042
4.52,64.5062,14.003,100.081,0.0011539
4.75,66.8066,14.004,100.084,0.0012904
4.99,69.107,14.004,100.086,0.0011961
5.22,71.4074,14.004,100.089,0.0015152
5.45,73.7078,14.005,100.091,0.0006873
5.68,76.0082,14.005,100.093,0.0012373
5.91,78.3086,14.005,100.095,0.0011456
6.14,80.609,14.005,100.097,0.0005954
6.37,82.9094,14.006,100.099,0.0015117
6.6,85.2099,14.006,100.101,0.0008705
6.83,87.5103,14.006,100.103,0.0005955
7.06,89.8107,14.006,100.105,0.0004118
7.29,92.1111,14.007,100.106,0.0001371
7.52,94.4115,14.007,100.107,0.0005489
7.75,96.7119,14.007,100.108,0.0003657
7.98,99.0123,14.007,100.109,0.0003659
8.21,101.313,14.007,100.111,0.0004580
8.44,103.613,14.007,100.112,0.0004577
8.67,105.914,14.008,100.113,0.0006404
8.9,108.214,14.008,100.113,0.0004126
9.13,110.514,14.008,100.114,0.0006403
9.36,112.815,14.008,100.115,0.0004578
9.59,115.115,14.008,100.116,0.0003659
9.82,117.416,14.008,100.116,0.0005033
10.05,119.716,14.008,100.117,0.0001374
10.28,122.016,14.008,100.117,0.0000000
10.51,124.317,14.008,100.118,0.0005041
10.74,126.617,14.008,100.118,-0.0000917
10.97,128.918,14.008,100.119,0.0001376
11.2,131.218,14.009,100.12,0.0004589
11.43,133.518,14.009,100.121,0.0000917
11.66,135.819,14.009,100.122,0.0008249
11.89,138.119,14.009,100.122,-0.0003201
12.12,140.42,14.009,100.122,-0.0010014
12.35,142.72,14.008,100.118,-0.0020390
12.58,145.021,14.008,100.114,-0.0019517
12.81,147.321,14.007,100.111,-0.0010981
13.04,149.621,14.007,100.108,-0.0006444
13.27,151.922,14.007,100.106,-0.0002302
13.5,154.222,14.007,100.106,-0.0005522
13.73,156.523,14.006,100.105,-0.0004595
13.96,158.823,14.006,100.104,-0.0001376
14.19,161.123,14.006,100.103,0.0000000
14.42,163.424,14.006,100.102,-0.0005961
14.65,165.724,14.006,100.101,-0.0003216
14.88,168.025,14.006,100.1,-0.0004128
15.12,170.325,14.006,100.099,-0.0005956
15.35,172.625,14.006,100.099,-0.0002291
15.58,174.926,14.005,100.098,-0.0003664
15.8,177.226,14.005,100.097,0.0002749
16.03,179.527,14.005,100.097,-0.0004582
16.27,181.827,14.005,100.096,-0.0001374
16.5,184.128,14.005,100.096,0.0000000
16.73,186.428,14.005,100.095,-0.0005488
16.95,188.728,14.005,100.094,0.0003209
17.19,191.029,14.005,100.094,-0.0004124
17.42,193.329,14.005,100.093,-0.0003206
17.65,195.63,14.005,100.092,-0.0001374
17.88,197.93,14.005,100.092,-0.0005503
18.11,200.23,14.004,100.091,-0.0003669
18.34,202.531,14.004,100.09,-0.0004582
18.57,204.831,14.004,100.089,-0.0000916
18.8,207.132,14.004,100.088,0.0002292
19.03,209.432,14.004,100.088,-0.0005956
19.26,211.732,14.004,100.087,-0.0002291
19.49,214.033,14.004,100.086,-0.0004580
19.72,216.333,14.004,100.085,-0.0000916
19.95,218.634,14.004,100.085,-0.0001376
20.18,220.934,14.004,100.084,-0.0003660
20.41,223.235,14.003,100.083,-0.0001374
20.64,225.535,14.003,100.083,-0.0003206
20.87,227.835,14.003,100.082,-0.0003668
21.1,230.136,14.003,100.081,-0.0002291
21.33,232.436,14.003,100.08,0.0000000
21.56,234.737,14.003,100.079,-0.0004577
21.79,237.037,14.003,100.078,-0.0002289
22.02,239.337,14.003,100.077,-0.0006874
22.25,241.638,14.002,100.076,-0.0003669
22.48,243.938,14.002,100.075,-0.0004583
22.71,246.239,14.002,100.073,-0.0014195
22.94,248.539,14.002,100.072,-0.0004580
23.17,250.839,14.002,100.071,-0.0007786
23.4,253.14,14.002,100.07,-0.0005040
23.63,255.44,14.001,100.069,-0.0005043
23.86,257.741,14.001,100.068,-0.0005952
24.09,260.041,14.001,100.066,-0.0003661
24.32,262.341,14.001,100.065,-0.0005498
24.56,264.642,14.001,100.064,-0.0008249
24.78,266.942,14.001,100.063,-0.0006414
25.02,269.243,14,100.061,-0.0007778
25.24,271.543,14,100.06,-0.0004583
25.48,273.844,14,100.058,-0.0004128
25.71,276.144,14,100.056,-0.0010536
25.93,278.444,13.999,100.055,-0.0001832
26.17,280.745,13.999,100.053,-0.0007798
26.39,283.045,13.999,100.052,-0.0004580
26.63,285.346,13.999,100.05,-0.0016032
26.86,287.646,13.998,100.048,-0.0004585
27.09,289.946,13.998,100.046,-0.0006871
27.32,292.247,13.998,100.044,-0.0007794
27.55,294.547,13.998,100.043,-0.0007336
27.78,296.848,13.997,100.041,-0.0009156
28.01,299.148,13.997,100.038,-0.0006410
28.24,301.448,13.997,100.036,-0.0005491
28.47,303.749,13.997,100.034,-0.0006872
28.7,306.049,13.996,100.032,-0.0013744
28.93,308.35,13.996,100.03,-0.0012821
29.16,310.65,13.996,100.027,-0.0012351
29.39,312.951,13.995,100.025,-0.0007333
29.62,315.251,13.995,100.023,-0.0007339
29.85,317.551,13.995,100.02,-0.0009158
30.08,319.852,13.994,100.018,-0.0011911
30.31,322.152,13.994,100.015,-0.0011901
30.54,324.453,13.994,100.013,-0.0008242
30.77,326.753,13.993,100.01,-0.0011911
31,329.053,13.993,100.007,-0.0014202
31.23,331.354,13.992,100.005,-0.0008700
31.46,333.654,13.992,100.002,-0.0010994
31.69,335.955,13.992,99.999,-0.0010994
31.92,338.255,13.991,99.996,-0.0012813
32.15,340.555,13.991,99.993,-0.0016944
32.38,342.856,13.99,99.99,-0.0016026
32.61,345.156,13.99,99.986,-0.0012363
32.84,347.457,13.989,99.982,-0.0016484
33.07,349.757,13.989,99.979,-0.0014194
33.3,352.058,13.988,99.975,-0.0019699
33.53,354.358,13.988,99.97,-0.0020612
33.76,356.658,13.987,99.966,-0.0018315
33.99,358.959,13.986,99.961,-0.0020586
34.22,361.259,13.986,99.956,-0.0023364
34.45,363.56,13.985,99.951,-0.0020127
34.68,365.86,13.984,99.945,-0.0027915
34.91,368.16,13.983,99.938,-0.0028399
35.14,370.461,13.982,99.931,-0.0031153
35.37,372.761,13.981,99.924,-0.0033467
35.6,375.062,13.98,99.916,-0.0042233
35.83,377.362,13.979,99.906,-0.0043442
36.06,379.662,13.977,99.896,-0.0048903
36.29,381.963,13.976,99.884,-0.0051235
36.52,384.263,13.974,99.871,-0.0058533
36.75,386.564,13.972,99.856,-0.0071860
36.98,388.864,13.969,99.84,-0.0076881
37.21,391.164,13.967,99.821,-0.0089220
37.44,393.465,13.964,99.799,-0.0105672
37.67,395.765,13.96,99.773,-0.0115237
37.9,398.066,13.956,99.744,-0.0140568
38.13,400.366,13.951,99.709,-0.0156049
38.36,402.667,13.946,99.67,-0.0181086
38.59,404.967,13.94,99.627,-0.0204820
38.82,407.267,13.933,99.578,-0.0227106
39.05,409.568,13.925,99.523,-0.0254121
39.28,411.868,13.916,99.461,-0.0283883
39.51,414.169,13.907,99.391,-0.0325649
39.74,416.469,13.896,99.312,-0.0362763
39.97,418.769,13.883,99.223,-0.0413998
40.2,421.07,13.869,99.122,-0.0470438
40.43,423.37,13.853,99.005,-0.0546661
40.66,425.671,13.834,98.87,-0.0627173
40.89,427.971,13.812,98.714,-0.0736640
41.12,430.271,13.784,98.516,-0.0998715
41.35,432.572,13.748,98.258,-0.1264860
41.58,434.872,13.703,97.938,-0.1539380
41.81,437.173,13.65,97.556,-0.1792120
42.04,439.473,13.584,97.085,-0.2305130
42.27,441.774,13.5,96.487,-0.2967030
42.5,444.074,13.388,95.688,-0.4185330
42.73,446.374,13.239,94.617,-0.4709610
42.96,448.675,13.052,93.285,-0.6601590
43.19,450.975,12.821,91.632,-0.6963880
43.42,453.276,12.555,89.733,-0.9365040
43.65,455.576,12.217,87.314,-1.32485
43.88,457.876,11.802,84.349,-1.31462
44.11,460.177,11.303,80.781,-1.77742
44.34,462.477,10.736,76.734,-1.75147
44.57,464.778,10.077,72.023,-2.40461
44.8,467.078,9.262,66.198,-2.62192
45.03,469.378,8.324,59.492,-3.18925
45.26,471.679,7.258,51.875,-3.37207
45.49,473.979,6.07,43.383,-3.94295
45.72,476.28,4.761,34.025,-4.20619
45.95,478.58,3.485,24.907,-3.8427
46.18,480.881,2.223,15.888,-3.68071
46.41,483.181,1.14,8.15,-2.87886
46.64,485.481,0.4140000,2.961,-1.63161
46.86,487.782,0.0870000,0.6190000,-0.4743680
47.09,490.082,0.0260000,0.1830000,-0.0320961
47.33,492.383,0.0160000,0.1160000,-0.0186790
47.56,494.683,0.0130000,0.0900000,-0.0060080
47.79,496.983,0.0120000,0.0830000,-0.0014629
48.02,499.284,0.0110000,0.0800000,-0.0003949
48.25,501.584,0.0110000,0.0800000,0.0003249
48.48,503.885,0.0110000,0.0800000,0.0000160
48.71,506.185,0.0110000,0.0800000,0.0001762
48.94,508.485,0.0110000,0.0810000,0.0000690
49.17,510.786,0.0110000,0.0810000,-0.0002072
49.4,513.086,0.0110000,0.0810000,0.0001341
49.63,515.387,0.0110000,0.0810000,0.0001788
49.86,517.687,0.0110000,0.0820000,-0.0000819
50.09,519.987,0.0120000,0.0820000,-0.0003452
50.32,522.288,0.0120000,0.0830000,-0.0000202
50.55,524.588,0.0120000,0.0830000,-0.0002259
50.78,526.889,0.0120000,0.0830000,0.0002352
51.01,529.189,0.0120000,0.0830000,0.0002181
51.24,531.49,0.0120000,0.0840000,0.0001836
51.47,533.79,0.0120000,0.0840000,0.0004938
51.7,536.09,0.0120000,0.0840000,0.0002811
51.93,538.391,0.0120000,0.0840000,0.0000699
52.16,540.691,0.0120000,0.0850000,0.0001685
52.39,542.992,0.0120000,0.0850000,0.0000816
52.62,545.292,0.0120000,0.0850000,0.0002556
52.85,547.592,0.0120000,0.0860000,0.0003132
53.08,549.893,0.0120000,0.0860000,-0.0000140
53.31,552.193,0.0120000,0.0860000,-0.0000295
53.54,554.494,0.0120000,0.0860000,0.0001481
53.77,556.794,0.0120000,0.0860000,0.0003560
54,559.094,0.0120000,0.0870000,-0.0002151
54.23,561.395,0.0120000,0.0870000,0.0002631
54.46,563.695,0.0120000,0.0870000,-0.0002347
54.69,565.996,0.0120000,0.0880000,0.0002655
54.91,568.296,0.0120000,0.0880000,-0.0001866
55.14,570.597,0.0120000,0.0880000,-0.0000108
55.38,572.897,0.0120000,0.0880000,-0.0000143
55.61,575.197,0.0120000,0.0890000,-0.0000521
55.84,577.498,0.0120000,0.0890000,0.0001234
56.06,579.798,0.0120000,0.0890000,0.0000257
56.29,582.099,0.0130000,0.0890000,0.0001751
56.53,584.399,0.0130000,0.0900000,0.0002933
56.75,586.699,0.0130000,0.0900000,0.0000249
56.98,589,0.0130000,0.0910000,0.0001676
57.08,590,0.0130000,0.0910000,0.0001753