File: R/rHDPE_App/app/www/Output/TGA/Condensed_Data/Resin11_0__1.csv
0.5600000,30,12.97,100.013,0.0053734
0.8800000,32.2004,12.971,100.024,-0.0006353
1.14,34.4008,12.972,100.029,0.0053425
1.39,36.6012,12.972,100.033,-0.0008139
1.63,38.8016,12.972,100.036,0.0022868
1.87,41.002,12.973,100.039,0.0002447
2.1,43.2024,12.973,100.041,0.0008739
2.34,45.4028,12.974,100.044,0.0008684
2.57,47.6031,12.974,100.047,0.0006696
2.8,49.8035,12.974,100.049,0.0010927
3.03,52.0039,12.975,100.052,0.0016069
3.25,54.2043,12.975,100.055,0.0006575
3.48,56.4047,12.975,100.057,0.0012164
3.7,58.6051,12.976,100.06,0.0012567
3.92,60.8055,12.976,100.062,0.0008823
4.15,63.0059,12.976,100.064,0.0010654
4.37,65.2063,12.976,100.066,0.0009709
4.59,67.4067,12.977,100.068,0.0006918
4.81,69.6071,12.977,100.07,0.0009660
5.03,71.8075,12.977,100.072,0.0006436
5.25,74.0079,12.977,100.073,0.0007810
5.48,76.2083,12.978,100.075,0.0008258
5.7,78.4086,12.978,100.076,0.0006413
5.91,80.609,12.978,100.077,0.0003664
6.14,82.8094,12.978,100.079,0.0003205
6.35,85.0098,12.978,100.08,0.0003662
6.58,87.2102,12.978,100.081,0.0003202
6.8,89.4106,12.978,100.081,0.0005950
7.02,91.611,12.978,100.082,0.0000000
7.24,93.8114,12.978,100.082,-0.0002286
7.45,96.0118,12.978,100.082,0.0004118
7.68,98.2122,12.978,100.082,0.0005490
7.9,100.413,12.978,100.082,0.0002745
8.11,102.613,12.978,100.082,0.0002744
8.34,104.813,12.978,100.082,-0.0005034
8.55,107.014,12.978,100.082,-0.0006406
8.78,109.214,12.978,100.082,-0.0001373
9,111.415,12.978,100.082,0.0000458
9.22,113.615,12.978,100.081,-0.0002291
9.43,115.815,12.978,100.081,-0.0003204
9.65,118.016,12.978,100.08,-0.0009165
9.88,120.216,12.978,100.08,-0.0003206
10.1,122.417,12.978,100.079,0.0000000
10.32,124.617,12.978,100.079,-0.0003208
10.53,126.817,12.978,100.078,-0.0001375
10.76,129.018,12.978,100.078,-0.0004588
10.98,131.218,12.978,100.077,-0.0000917
11.2,133.418,12.978,100.077,-0.0003664
11.42,135.619,12.978,100.077,-0.0003661
11.64,137.819,12.978,100.075,-0.0011415
11.85,140.02,12.977,100.071,-0.0024523
12.08,142.22,12.976,100.066,-0.0022659
12.29,144.42,12.976,100.061,-0.0022385
12.51,146.621,12.975,100.058,-0.0015169
12.73,148.821,12.975,100.055,-0.0010577
12.95,151.022,12.975,100.052,-0.0014253
13.18,153.222,12.974,100.049,-0.0015155
13.4,155.422,12.974,100.046,-0.0014665
13.62,157.623,12.973,100.043,-0.0013296
13.84,159.823,12.973,100.04,-0.0011916
14.06,162.024,12.973,100.037,-0.0010999
14.28,164.224,12.972,100.034,-0.0016512
14.5,166.424,12.972,100.03,-0.0014196
14.72,168.625,12.971,100.027,-0.0013287
14.94,170.825,12.971,100.024,-0.0017886
15.16,173.026,12.97,100.02,-0.0013746
15.38,175.226,12.97,100.017,-0.0019231
15.6,177.426,12.969,100.013,-0.0017415
15.82,179.627,12.969,100.009,-0.0017865
16.04,181.827,12.968,100.005,-0.0019228
16.26,184.028,12.968,100.001,-0.0014211
16.48,186.228,12.967,99.997,-0.0020178
16.7,188.428,12.967,99.992,-0.0021066
16.92,190.629,12.966,99.988,-0.0022032
17.14,192.829,12.966,99.984,-0.0021528
17.36,195.029,12.965,99.979,-0.0019697
17.58,197.23,12.965,99.975,-0.0022905
17.8,199.43,12.964,99.97,-0.0020169
18.02,201.631,12.963,99.965,-0.0023818
18.24,203.831,12.963,99.959,-0.0024705
18.46,206.031,12.962,99.954,-0.0021481
18.68,208.232,12.961,99.949,-0.0027478
18.9,210.432,12.96,99.943,-0.0029420
19.12,212.633,12.96,99.937,-0.0024305
19.34,214.833,12.959,99.931,-0.0024728
19.56,217.033,12.958,99.925,-0.0028388
19.78,219.234,12.957,99.919,-0.0026569
20,221.434,12.956,99.912,-0.0029326
20.23,223.635,12.956,99.906,-0.0029326
20.44,225.835,12.955,99.899,-0.0031588
20.67,228.035,12.954,99.892,-0.0033889
20.88,230.236,12.953,99.884,-0.0033907
21.11,232.436,12.952,99.877,-0.0035186
21.33,234.637,12.951,99.869,-0.0036139
21.54,236.837,12.95,99.861,-0.0039464
21.77,239.037,12.949,99.852,-0.0041724
21.99,241.238,12.948,99.844,-0.0040374
22.21,243.438,12.946,99.835,-0.0038838
22.43,245.639,12.945,99.826,-0.0040268
22.65,247.839,12.944,99.817,-0.0042645
22.87,250.039,12.943,99.807,-0.0043498
23.09,252.24,12.942,99.798,-0.0048526
23.31,254.44,12.94,99.788,-0.0047148
23.53,256.64,12.939,99.778,-0.0044913
23.75,258.841,12.938,99.768,-0.0044455
23.97,261.041,12.936,99.757,-0.0046677
24.19,263.242,12.935,99.746,-0.0050843
24.41,265.442,12.933,99.735,-0.0053640
24.63,267.642,12.932,99.724,-0.0052675
24.85,269.843,12.931,99.713,-0.0050413
25.07,272.043,12.929,99.701,-0.0052608
25.29,274.244,12.927,99.689,-0.0054996
25.51,276.444,12.926,99.677,-0.0053152
25.73,278.644,12.924,99.664,-0.0059066
25.95,280.845,12.923,99.652,-0.0056319
26.17,283.045,12.921,99.639,-0.0057692
26.39,285.246,12.919,99.626,-0.0059098
26.61,287.446,12.918,99.612,-0.0059949
26.83,289.646,12.916,99.599,-0.0060462
27.05,291.847,12.914,99.585,-0.0064150
27.27,294.047,12.912,99.571,-0.0062729
27.49,296.248,12.91,99.556,-0.0064596
27.71,298.448,12.908,99.542,-0.0067369
27.93,300.648,12.907,99.528,-0.0067344
28.15,302.849,12.905,99.512,-0.0072304
28.37,305.049,12.903,99.497,-0.0066850
28.59,307.25,12.901,99.482,-0.0069597
28.81,309.45,12.899,99.467,-0.0068223
29.03,311.65,12.897,99.451,-0.0072384
29.25,313.851,12.895,99.435,-0.0070055
29.47,316.051,12.893,99.42,-0.0073260
29.69,318.251,12.891,99.404,-0.0069687
29.91,320.452,12.888,99.388,-0.0070971
30.13,322.652,12.886,99.372,-0.0074148
30.35,324.853,12.884,99.355,-0.0074634
30.57,327.053,12.882,99.339,-0.0075688
30.79,329.253,12.88,99.322,-0.0077982
31.01,331.454,12.878,99.305,-0.0076423
31.23,333.654,12.875,99.288,-0.0076923
31.45,335.855,12.873,99.27,-0.0080543
31.67,338.055,12.871,99.253,-0.0078297
31.89,340.255,12.869,99.235,-0.0085118
32.11,342.456,12.866,99.216,-0.0082402
32.33,344.656,12.864,99.198,-0.0081442
32.55,346.857,12.861,99.179,-0.0089073
32.77,349.057,12.859,99.159,-0.0088025
32.99,351.257,12.856,99.14,-0.0088828
33.21,353.458,12.854,99.12,-0.0095238
33.43,355.658,12.851,99.099,-0.0093287
33.65,357.859,12.848,99.078,-0.0097035
33.87,360.059,12.845,99.056,-0.0099395
34.09,362.259,12.843,99.034,-0.0102965
34.31,364.46,12.84,99.011,-0.0106627
34.53,366.66,12.837,98.988,-0.0109392
34.75,368.861,12.833,98.964,-0.0111722
34.97,371.061,12.83,98.94,-0.0114469
35.19,373.261,12.827,98.914,-0.0119505
35.41,375.462,12.823,98.887,-0.0122756
35.63,377.662,12.82,98.859,-0.0125458
35.86,379.862,12.816,98.829,-0.0138863
36.08,382.063,12.812,98.798,-0.0148270
36.29,384.263,12.808,98.764,-0.0162397
36.51,386.464,12.803,98.727,-0.0182335
36.74,388.664,12.797,98.685,-0.0201007
36.95,390.864,12.791,98.64,-0.0215004
37.17,393.065,12.785,98.591,-0.0236418
37.39,395.265,12.778,98.536,-0.0262653
37.61,397.466,12.77,98.475,-0.0292743
37.83,399.666,12.761,98.407,-0.0327561
38.05,401.866,12.751,98.33,-0.0369625
38.27,404.067,12.74,98.244,-0.0416438
38.49,406.267,12.727,98.146,-0.0477585
38.71,408.468,12.713,98.032,-0.0560645
38.93,410.668,12.695,97.899,-0.0645250
39.15,412.868,12.675,97.744,-0.0769161
39.37,415.069,12.65,97.551,-0.1021050
39.59,417.269,12.616,97.285,-0.1343590
39.81,419.47,12.573,96.959,-0.1587210
40.03,421.67,12.525,96.583,-0.1791980
40.25,423.87,12.47,96.16,-0.2051950
40.47,426.071,12.406,95.669,-0.2414380
40.69,428.271,12.332,95.099,-0.2800730
40.91,430.472,12.247,94.438,-0.3172320
41.13,432.672,12.146,93.666,-0.3827560
41.35,434.872,12.028,92.754,-0.4376490
41.57,437.073,11.888,91.675,-0.5294140
41.79,439.273,11.724,90.405,-0.6335560
42.01,441.473,11.526,88.879,-0.7457420
42.23,443.674,11.294,87.09,-0.8808150
42.45,445.874,11.022,84.997,-1.05023
42.68,448.075,10.695,82.471,-1.27627
42.89,450.275,10.32,79.582,-1.39772
43.11,452.475,9.888,76.254,-1.66513
43.34,454.676,9.378,72.321,-1.84483
43.56,456.876,8.796,67.828,-2.20255
43.78,459.077,8.114,62.57,-2.61092
43.99,461.277,7.343,56.622,-2.8764
44.22,463.477,6.488,50.028,-3.07903
44.44,465.678,5.582,43.042,-3.38711
44.66,467.878,4.582,35.337,-3.62344
44.88,470.079,3.554,27.409,-3.51044
45.09,472.279,2.552,19.683,-3.42761
45.31,474.479,1.673,12.905,-2.84695
45.53,476.68,0.9890000,7.625,-2.01651
45.75,478.88,0.5160000,3.976,-1.24161
45.97,481.081,0.2670000,2.056,-0.5462080
46.19,483.281,0.1760000,1.359,-0.1261040
46.41,485.481,0.1600000,1.234,-0.0378957
46.63,487.682,0.1520000,1.175,-0.0170743
46.85,489.882,0.1490000,1.15,-0.0067977
47.08,492.083,0.1480000,1.14,-0.0031401
47.29,494.283,0.1470000,1.135,-0.0013102
47.51,496.483,0.1470000,1.133,-0.0010543
47.74,498.684,0.1470000,1.131,-0.0008617
47.96,500.884,0.1460000,1.129,-0.0007684
48.17,503.084,0.1460000,1.128,-0.0005866
48.39,505.285,0.1460000,1.127,-0.0003992
48.61,507.485,0.1460000,1.126,-0.0003024
48.83,509.686,0.1460000,1.125,-0.0006728
49.05,511.886,0.1460000,1.124,-0.0003658
49.27,514.086,0.1460000,1.123,-0.0000528
49.49,516.287,0.1460000,1.122,-0.0004657
49.71,518.487,0.1450000,1.121,-0.0003995
49.93,520.688,0.1450000,1.121,-0.0000952
50.15,522.888,0.1450000,1.12,-0.0003179
50.37,525.088,0.1450000,1.12,-0.0004851
50.59,527.289,0.1450000,1.119,-0.0002819
50.81,529.489,0.1450000,1.118,-0.0005025
51.03,531.69,0.1450000,1.117,-0.0003287
51.25,533.89,0.1450000,1.115,-0.0009740
51.47,536.09,0.1440000,1.114,-0.0000986
51.69,538.291,0.1440000,1.113,-0.0006452
51.91,540.491,0.1440000,1.111,-0.0013643
52.13,542.692,0.1440000,1.108,-0.0011799
52.35,544.892,0.1430000,1.104,-0.0014024
52.57,547.092,0.1430000,1.101,-0.0016641
52.79,549.293,0.1420000,1.097,-0.0017030
53.01,551.493,0.1420000,1.093,-0.0019109
53.23,553.694,0.1410000,1.089,-0.0018652
53.45,555.894,0.1410000,1.085,-0.0015450
53.67,558.094,0.1400000,1.082,-0.0024999
53.89,560.295,0.1400000,1.079,-0.0014273
54.11,562.495,0.1390000,1.076,-0.0014996
54.33,564.695,0.1390000,1.072,-0.0017894
54.55,566.896,0.1380000,1.068,-0.0017809
54.77,569.096,0.1380000,1.063,-0.0016913
54.99,571.297,0.1370000,1.058,-0.0019217
55.21,573.497,0.1370000,1.054,-0.0023876
55.43,575.697,0.1360000,1.05,-0.0020716
55.65,577.898,0.1360000,1.045,-0.0019703
55.87,580.098,0.1350000,1.041,-0.0025664
56.09,582.299,0.1340000,1.036,-0.0021940
56.31,584.499,0.1340000,1.031,-0.0023538
56.53,586.699,0.1330000,1.027,-0.0023395
56.75,588.9,0.1330000,1.024,-0.0008240
56.86,590,0.1330000,1.023,-0.0015364