File: R/rHDPE_App/app/www/Output/TGA/Condensed_Data/Resin2_0__1.csv
0.9200000,30,13.975,100.03,0.0061806
1.18,32.2004,13.976,100.034,-0.0007375
1.43,34.4008,13.976,100.037,-0.0003041
1.67,36.6012,13.977,100.04,0.0005445
1.9,38.8016,13.977,100.042,-0.0001953
2.14,41.002,13.977,100.045,0.0003389
2.37,43.2024,13.978,100.047,0.0007702
2.6,45.4028,13.978,100.05,0.0001911
2.83,47.6031,13.978,100.052,0.0012339
3.06,49.8035,13.979,100.055,0.0010380
3.28,52.0039,13.979,100.057,0.0012205
3.51,54.2043,13.98,100.06,0.0009353
3.73,56.4047,13.98,100.062,0.0015830
3.96,58.6051,13.98,100.064,0.0012062
4.18,60.8055,13.98,100.067,0.0007871
4.4,63.0059,13.981,100.069,0.0007851
4.62,65.2063,13.981,100.07,0.0011060
4.84,67.4067,13.981,100.072,0.0007362
5.06,69.6071,13.982,100.074,0.0008727
5.29,71.8075,13.982,100.076,0.0006882
5.5,74.0079,13.982,100.077,0.0007800
5.73,76.2083,13.982,100.079,0.0005498
5.95,78.4086,13.982,100.08,0.0003207
6.16,80.609,13.983,100.081,0.0007776
6.39,82.8094,13.983,100.082,0.0005949
6.6,85.0098,13.983,100.084,0.0006866
6.83,87.2102,13.983,100.085,0.0004575
7.05,89.4106,13.983,100.085,0.0000000
7.27,91.611,13.983,100.086,0.0005494
7.49,93.8114,13.983,100.087,0.0005945
7.71,96.0118,13.983,100.087,0.0001374
7.93,98.2122,13.983,100.087,0.0006396
8.15,100.413,13.983,100.088,0.0000000
8.36,102.613,13.983,100.088,-0.0000458
8.59,104.813,13.983,100.088,0.0000458
8.81,107.014,13.983,100.088,0.0000458
9.03,109.214,13.983,100.088,-0.0002286
9.25,111.415,13.983,100.087,0.0002290
9.47,113.615,13.983,100.087,-0.0000915
9.69,115.815,13.983,100.087,-0.0004580
9.91,118.016,13.983,100.086,-0.0004578
10.13,120.216,13.983,100.086,-0.0000458
10.35,122.417,13.983,100.085,-0.0003665
10.57,124.617,13.983,100.085,-0.0003665
10.79,126.817,13.983,100.085,0.0000917
11.01,129.018,13.983,100.085,-0.0000917
11.23,131.218,13.983,100.084,-0.0003204
11.45,133.418,13.983,100.084,-0.0003661
11.67,135.619,13.983,100.083,-0.0004579
11.89,137.819,13.983,100.082,-0.0009600
12.11,140.02,13.982,100.078,-0.0021358
12.33,142.22,13.981,100.073,-0.0027273
12.55,144.42,13.981,100.067,-0.0021442
12.77,146.621,13.98,100.063,-0.0020187
12.98,148.821,13.979,100.059,-0.0017956
13.21,151.022,13.979,100.055,-0.0016543
13.43,153.222,13.978,100.052,-0.0018785
13.65,155.422,13.978,100.048,-0.0018816
13.87,157.623,13.977,100.045,-0.0016983
14.09,159.823,13.977,100.041,-0.0016966
14.31,162.024,13.976,100.037,-0.0018325
14.53,164.224,13.976,100.033,-0.0019261
14.75,166.424,13.975,100.028,-0.0019255
14.97,168.625,13.974,100.023,-0.0022909
15.19,170.825,13.974,100.019,-0.0023320
15.41,173.026,13.973,100.014,-0.0022967
15.63,175.226,13.972,100.009,-0.0025126
15.85,177.426,13.972,100.004,-0.0022940
16.07,179.627,13.971,99.999,-0.0022910
16.29,181.827,13.97,99.993,-0.0027936
16.51,184.028,13.969,99.988,-0.0024256
16.73,186.228,13.969,99.982,-0.0023840
16.95,188.428,13.968,99.976,-0.0026159
17.17,190.629,13.967,99.97,-0.0028396
17.39,192.829,13.966,99.965,-0.0025172
17.61,195.029,13.965,99.959,-0.0027994
17.83,197.23,13.965,99.953,-0.0025646
18.05,199.43,13.964,99.946,-0.0030270
18.27,201.631,13.963,99.94,-0.0030700
18.49,203.831,13.962,99.934,-0.0028854
18.71,206.031,13.961,99.927,-0.0032569
18.93,208.232,13.96,99.921,-0.0028357
19.15,210.432,13.959,99.914,-0.0031672
19.38,212.633,13.958,99.907,-0.0030242
19.59,214.833,13.957,99.901,-0.0029740
19.82,217.033,13.956,99.894,-0.0033471
20.03,219.234,13.955,99.887,-0.0034315
20.26,221.434,13.954,99.88,-0.0035698
20.48,223.635,13.953,99.873,-0.0032533
20.69,225.835,13.952,99.866,-0.0032524
20.92,228.035,13.951,99.858,-0.0033935
21.13,230.236,13.95,99.851,-0.0032104
21.36,232.436,13.949,99.843,-0.0034382
21.58,234.637,13.948,99.836,-0.0035260
21.79,236.837,13.947,99.828,-0.0036123
22.02,239.037,13.946,99.821,-0.0035289
22.24,241.238,13.945,99.813,-0.0033446
22.46,243.438,13.944,99.805,-0.0037587
22.68,245.639,13.943,99.797,-0.0034404
22.9,247.839,13.942,99.789,-0.0034757
23.12,250.039,13.941,99.781,-0.0035214
23.34,252.24,13.939,99.773,-0.0033846
23.56,254.44,13.938,99.765,-0.0038119
23.78,256.64,13.937,99.756,-0.0040278
24,258.841,13.936,99.748,-0.0038905
24.22,261.041,13.935,99.739,-0.0040293
24.44,263.242,13.934,99.73,-0.0040315
24.66,265.442,13.932,99.722,-0.0039872
24.88,267.642,13.931,99.713,-0.0040234
25.1,269.843,13.93,99.704,-0.0041322
25.32,272.043,13.929,99.694,-0.0041209
25.54,274.244,13.927,99.685,-0.0041209
25.76,276.444,13.926,99.676,-0.0041262
25.98,278.644,13.925,99.666,-0.0042644
26.2,280.845,13.923,99.656,-0.0043538
26.42,283.045,13.922,99.647,-0.0045830
26.64,285.246,13.921,99.637,-0.0044333
26.86,287.446,13.919,99.627,-0.0044537
27.08,289.646,13.918,99.618,-0.0046288
27.3,291.847,13.916,99.608,-0.0042606
27.52,294.047,13.915,99.597,-0.0045897
27.74,296.248,13.913,99.587,-0.0043900
27.96,298.448,13.912,99.577,-0.0048060
28.18,300.648,13.911,99.566,-0.0044954
28.4,302.849,13.909,99.556,-0.0047032
28.62,305.049,13.908,99.546,-0.0045304
28.84,307.25,13.906,99.535,-0.0046312
29.06,309.45,13.905,99.525,-0.0045763
29.28,311.65,13.903,99.514,-0.0047222
29.5,313.851,13.902,99.503,-0.0049424
29.72,316.051,13.9,99.492,-0.0050321
29.94,318.251,13.899,99.481,-0.0051357
30.16,320.452,13.897,99.47,-0.0050320
30.38,322.652,13.896,99.459,-0.0054824
30.6,324.853,13.894,99.447,-0.0052752
30.82,327.053,13.892,99.436,-0.0052617
31.04,329.253,13.891,99.424,-0.0053591
31.26,331.454,13.889,99.412,-0.0056144
31.48,333.654,13.887,99.4,-0.0056808
31.7,335.855,13.886,99.388,-0.0057161
31.92,338.055,13.884,99.375,-0.0058791
32.14,340.255,13.882,99.362,-0.0057938
32.36,342.456,13.88,99.349,-0.0060517
32.58,344.656,13.878,99.336,-0.0061655
32.8,346.857,13.876,99.322,-0.0065078
33.02,349.057,13.874,99.308,-0.0063668
33.24,351.257,13.872,99.293,-0.0066800
33.46,353.458,13.87,99.278,-0.0068411
33.68,355.658,13.868,99.262,-0.0075619
33.9,357.859,13.866,99.246,-0.0077555
34.12,360.059,13.863,99.229,-0.0077796
34.34,362.259,13.861,99.21,-0.0087109
34.56,364.46,13.858,99.191,-0.0090742
34.79,366.66,13.855,99.171,-0.0097527
35,368.861,13.852,99.149,-0.0101574
35.23,371.061,13.849,99.125,-0.0112008
35.44,373.261,13.845,99.099,-0.0122107
35.66,375.462,13.841,99.07,-0.0140388
35.88,377.662,13.837,99.038,-0.0153958
36.1,379.862,13.832,99.002,-0.0171546
36.32,382.063,13.826,98.962,-0.0192518
36.54,384.263,13.82,98.917,-0.0217033
36.76,386.464,13.813,98.866,-0.0245609
36.98,388.664,13.805,98.809,-0.0274373
37.2,390.864,13.796,98.746,-0.0305581
37.42,393.065,13.786,98.675,-0.0339908
37.64,395.265,13.775,98.596,-0.0372282
37.86,397.466,13.763,98.51,-0.0417125
38.08,399.666,13.75,98.413,-0.0459502
38.3,401.866,13.735,98.307,-0.0508963
38.52,404.067,13.718,98.188,-0.0569638
38.74,406.267,13.699,98.055,-0.0636430
38.96,408.468,13.679,97.905,-0.0729548
39.18,410.668,13.654,97.728,-0.0922570
39.4,412.868,13.622,97.497,-0.1165290
39.62,415.069,13.583,97.222,-0.1373120
39.84,417.269,13.539,96.907,-0.1563930
40.06,419.47,13.489,96.549,-0.1667130
40.28,421.67,13.433,96.144,-0.1977870
40.5,423.87,13.369,95.687,-0.2182060
40.73,426.071,13.296,95.164,-0.2493130
40.94,428.271,13.213,94.576,-0.2823160
41.16,430.472,13.119,93.899,-0.3326920
41.39,432.672,13.009,93.112,-0.3803570
41.61,434.872,12.881,92.194,-0.4547450
41.82,437.073,12.73,91.119,-0.5371180
42.04,439.273,12.547,89.805,-0.6534860
42.26,441.473,12.325,88.218,-0.7980060
42.48,443.674,12.061,86.326,-0.9322640
42.71,445.874,11.757,84.153,-1.05888
42.92,448.075,11.397,81.577,-1.28959
43.14,450.275,10.97,78.516,-1.53923
43.36,452.475,10.465,74.905,-1.78061
43.59,454.676,9.863,70.597,-2.12855
43.81,456.876,9.152,65.509,-2.48441
44.03,459.077,8.327,59.602,-2.85341
44.24,461.277,7.397,52.947,-3.25037
44.47,463.477,6.347,45.429,-3.57728
44.69,465.678,5.236,37.477,-3.60855
44.91,467.878,4.095,29.311,-3.70175
45.13,470.079,2.996,21.444,-3.33938
45.34,472.279,2.027,14.506,-2.88237
45.56,474.479,1.242,8.891,-2.16213
45.78,476.68,0.7110000,5.089,-1.32577
46,478.88,0.4160000,2.977,-0.6152460
46.22,481.081,0.2920000,2.091,-0.2189490
46.44,483.281,0.2600000,1.859,-0.0424147
46.66,485.481,0.2490000,1.78,-0.0255689
46.88,487.682,0.2440000,1.744,-0.0094431
47.1,489.882,0.2420000,1.731,-0.0032705
47.32,492.083,0.2410000,1.727,-0.0012956
47.54,494.283,0.2410000,1.725,-0.0008300
47.76,496.483,0.2410000,1.724,-0.0003594
47.99,498.684,0.2410000,1.723,-0.0001993
48.21,500.884,0.2410000,1.723,0.0000029
48.42,503.084,0.2410000,1.723,-0.0003689
48.64,505.285,0.2410000,1.723,0.0000947
48.86,507.485,0.2410000,1.722,-0.0004384
49.08,509.686,0.2410000,1.722,-0.0000179
49.3,511.886,0.2410000,1.722,-0.0002307
49.52,514.086,0.2410000,1.722,0.0001193
49.74,516.287,0.2400000,1.721,-0.0002170
49.96,518.487,0.2400000,1.721,-0.0001301
50.18,520.688,0.2400000,1.721,0.0001448
50.4,522.888,0.2400000,1.721,-0.0004149
50.62,525.088,0.2400000,1.72,-0.0000801
50.84,527.289,0.2400000,1.72,-0.0006072
51.06,529.489,0.2400000,1.719,-0.0004452
51.28,531.69,0.2400000,1.719,0.0000179
51.5,533.89,0.2400000,1.718,-0.0002429
51.72,536.09,0.2400000,1.718,-0.0002640
51.94,538.291,0.2400000,1.717,-0.0001431
52.16,540.491,0.2400000,1.717,-0.0002507
52.38,542.692,0.2400000,1.717,-0.0000702
52.6,544.892,0.2400000,1.716,-0.0001301
52.82,547.092,0.2400000,1.716,-0.0002960
53.04,549.293,0.2400000,1.716,0.0000322
53.26,551.493,0.2400000,1.715,-0.0001767
53.48,553.694,0.2400000,1.714,-0.0004150
53.7,555.894,0.2390000,1.714,-0.0002683
53.92,558.094,0.2390000,1.713,-0.0001770
54.14,560.295,0.2390000,1.712,-0.0005545
54.36,562.495,0.2390000,1.711,-0.0002973
54.58,564.695,0.2390000,1.71,-0.0008637
54.8,566.896,0.2390000,1.708,-0.0010374
55.02,569.096,0.2380000,1.706,-0.0011837
55.24,571.297,0.2380000,1.703,-0.0011413
55.46,573.497,0.2380000,1.702,-0.0009143
55.68,575.697,0.2370000,1.7,-0.0008373
55.9,577.898,0.2370000,1.698,-0.0006316
56.12,580.098,0.2370000,1.697,-0.0008240
56.34,582.299,0.2370000,1.696,-0.0005921
56.56,584.499,0.2370000,1.694,-0.0006113
56.78,586.699,0.2370000,1.693,-0.0005978
57,588.9,0.2360000,1.692,-0.0004503
57.11,590,0.2360000,1.692,-0.0006353