File: R/rHDPE_App/app/www/Output/TGA/Condensed_Data/Resin13_1__1.csv
0.6300000,30,11.635,100.014,0.0126719
0.9300000,32.2004,11.637,100.025,0.0012226
1.2,34.4008,11.638,100.034,-0.0002682
1.45,36.6012,11.639,100.04,0.0042389
1.69,38.8016,11.639,100.045,-0.0001489
1.93,41.002,11.64,100.05,0.0017548
2.16,43.2024,11.64,100.054,0.0008670
2.39,45.4028,11.64,100.057,0.0005258
2.62,47.6031,11.641,100.06,0.0018983
2.85,49.8035,11.641,100.063,0.0009449
3.08,52.0039,11.642,100.067,0.0011758
3.3,54.2043,11.642,100.07,0.0012149
3.53,56.4047,11.642,100.073,0.0013522
3.75,58.6051,11.643,100.076,0.0012543
3.97,60.8055,11.643,100.078,0.0014380
4.19,63.0059,11.643,100.082,0.0007868
4.42,65.2063,11.644,100.084,0.0008315
4.64,67.4067,11.644,100.087,0.0010145
4.86,69.6071,11.644,100.089,0.0010132
5.08,71.8075,11.645,100.092,0.0009195
5.3,74.0079,11.645,100.095,0.0011941
5.52,76.2083,11.645,100.097,0.0009637
5.75,78.4086,11.645,100.099,0.0004127
5.96,80.609,11.646,100.101,0.0009163
6.19,82.8094,11.646,100.103,0.0010524
6.4,85.0098,11.646,100.105,0.0006419
6.63,87.2102,11.646,100.107,0.0000000
6.85,89.4106,11.646,100.109,0.0004588
7.07,91.611,11.647,100.11,0.0007331
7.29,93.8114,11.647,100.111,0.0006416
7.51,96.0118,11.647,100.113,0.0004122
7.73,98.2122,11.647,100.114,0.0004580
7.95,100.413,11.647,100.115,0.0010981
8.17,102.613,11.647,100.116,0.0008686
8.39,104.813,11.647,100.117,0.0001831
8.61,107.014,11.648,100.118,0.0000917
8.83,109.214,11.648,100.119,-0.0001824
9.05,111.415,11.648,100.119,-0.0001376
9.27,113.615,11.648,100.119,0.0010554
9.49,115.815,11.648,100.119,0.0001837
9.71,118.016,11.648,100.119,-0.0003663
9.93,120.216,11.648,100.119,-0.0001370
10.15,122.417,11.648,100.119,0.0004562
10.37,124.617,11.648,100.119,0.0000000
10.59,126.817,11.648,100.119,0.0000915
10.81,129.018,11.648,100.118,-0.0001367
11.03,131.218,11.648,100.118,0.0000001
11.25,133.418,11.647,100.117,-0.0000000
11.47,135.619,11.647,100.117,-0.0002724
11.69,137.819,11.647,100.117,0.0004125
11.91,140.02,11.647,100.116,0.0002751
12.13,142.22,11.647,100.116,0.0002283
12.35,144.42,11.647,100.117,-0.0001829
12.57,146.621,11.647,100.117,-0.0002281
12.79,148.821,11.647,100.116,-0.0005518
13.01,151.022,11.647,100.115,-0.0007382
13.23,153.222,11.647,100.111,-0.0023684
13.45,155.422,11.646,100.106,-0.0025062
13.67,157.623,11.646,100.101,-0.0021106
13.89,159.823,11.645,100.097,-0.0013695
14.11,162.024,11.645,100.095,-0.0010924
14.33,164.224,11.644,100.091,-0.0013214
14.55,166.424,11.644,100.089,-0.0012814
14.77,168.625,11.644,100.086,-0.0008277
14.99,170.825,11.644,100.084,-0.0013385
15.21,173.026,11.643,100.081,-0.0014850
15.43,175.226,11.643,100.078,-0.0012788
15.65,177.426,11.643,100.075,-0.0012887
15.87,179.627,11.642,100.072,-0.0020156
16.09,181.827,11.642,100.068,-0.0018773
16.31,184.028,11.641,100.064,-0.0012905
16.53,186.228,11.641,100.061,-0.0016469
16.75,188.428,11.64,100.057,-0.0015187
16.98,190.629,11.64,100.053,-0.0016933
17.2,192.829,11.64,100.05,-0.0015392
17.42,195.029,11.639,100.045,-0.0018121
17.63,197.23,11.639,100.04,-0.0023703
17.85,199.43,11.638,100.036,-0.0019690
18.07,201.631,11.637,100.031,-0.0014356
18.29,203.831,11.637,100.026,-0.0017488
18.52,206.031,11.636,100.021,-0.0023979
18.73,208.232,11.636,100.016,-0.0026606
18.96,210.432,11.635,100.01,-0.0029558
19.19,212.633,11.634,100.005,-0.0026951
19.41,214.833,11.634,100,-0.0025148
19.62,217.033,11.633,99.994,-0.0028365
19.84,219.234,11.632,99.988,-0.0028101
20.06,221.434,11.632,99.982,-0.0033233
20.28,223.635,11.631,99.976,-0.0028105
20.49,225.835,11.63,99.969,-0.0026525
20.71,228.035,11.629,99.963,-0.0029096
20.93,230.236,11.629,99.956,-0.0029670
21.16,232.436,11.628,99.949,-0.0037008
21.39,234.637,11.627,99.942,-0.0035860
21.62,236.837,11.626,99.936,-0.0025736
21.83,239.037,11.626,99.928,-0.0026721
22.04,241.238,11.625,99.921,-0.0035075
22.26,243.438,11.624,99.914,-0.0035307
22.48,245.639,11.623,99.906,-0.0034271
22.7,247.839,11.622,99.899,-0.0038535
22.93,250.039,11.621,99.891,-0.0034287
23.14,252.24,11.62,99.883,-0.0033006
23.36,254.44,11.619,99.875,-0.0035114
23.58,256.64,11.618,99.868,-0.0034854
23.8,258.841,11.617,99.859,-0.0036172
24.02,261.041,11.617,99.851,-0.0035486
24.24,263.242,11.616,99.843,-0.0038518
24.46,265.442,11.615,99.835,-0.0038907
24.68,267.642,11.614,99.827,-0.0035212
24.9,269.843,11.613,99.819,-0.0039740
25.12,272.043,11.612,99.81,-0.0040835
25.34,274.244,11.611,99.802,-0.0036060
25.56,276.444,11.61,99.793,-0.0044926
25.78,278.644,11.609,99.784,-0.0041721
26,280.845,11.608,99.776,-0.0036759
26.22,283.045,11.607,99.767,-0.0039733
26.44,285.246,11.606,99.758,-0.0040673
26.66,287.446,11.605,99.749,-0.0034747
26.87,289.646,11.604,99.74,-0.0044772
27.09,291.847,11.603,99.731,-0.0047297
27.31,294.047,11.602,99.722,-0.0043214
27.53,296.248,11.6,99.713,-0.0045555
27.75,298.448,11.599,99.704,-0.0047118
27.97,300.648,11.598,99.694,-0.0040816
28.19,302.849,11.597,99.684,-0.0045471
28.42,305.049,11.596,99.674,-0.0044847
28.64,307.25,11.595,99.665,-0.0049057
28.86,309.45,11.594,99.655,-0.0042870
29.09,311.65,11.593,99.645,-0.0049302
29.31,313.851,11.591,99.635,-0.0043509
29.53,316.051,11.59,99.624,-0.0050697
29.76,318.251,11.589,99.614,-0.0043286
29.97,320.452,11.588,99.604,-0.0045867
30.19,322.652,11.586,99.593,-0.0045981
30.42,324.853,11.585,99.582,-0.0054196
30.63,327.053,11.584,99.57,-0.0050956
30.85,329.253,11.583,99.559,-0.0053171
31.08,331.454,11.581,99.547,-0.0052564
31.29,333.654,11.58,99.535,-0.0058514
31.49,335.855,11.578,99.523,-0.0055761
31.72,338.055,11.577,99.511,-0.0060841
31.94,340.255,11.576,99.499,-0.0058116
32.17,342.456,11.574,99.486,-0.0061581
32.39,344.656,11.572,99.472,-0.0061588
32.61,346.857,11.571,99.459,-0.0061695
32.83,349.057,11.569,99.445,-0.0067892
33.04,351.257,11.568,99.431,-0.0065574
33.27,353.458,11.566,99.416,-0.0074661
33.49,355.658,11.564,99.402,-0.0070072
33.71,357.859,11.562,99.386,-0.0066225
33.93,360.059,11.561,99.37,-0.0076251
34.15,362.259,11.559,99.353,-0.0077852
34.37,364.46,11.557,99.336,-0.0076439
34.59,366.66,11.555,99.318,-0.0085849
34.81,368.861,11.552,99.3,-0.0084203
35.02,371.061,11.55,99.281,-0.0093321
35.24,373.261,11.548,99.261,-0.0084793
35.46,375.462,11.545,99.24,-0.0097348
35.69,377.662,11.543,99.218,-0.0104187
35.91,379.862,11.54,99.195,-0.0110187
36.13,382.063,11.537,99.169,-0.0125226
36.34,384.263,11.534,99.14,-0.0140209
36.57,386.464,11.53,99.109,-0.0149348
36.79,388.664,11.526,99.076,-0.0161620
37,390.864,11.522,99.041,-0.0161131
37.22,393.065,11.518,99.004,-0.0170944
37.44,395.265,11.514,98.966,-0.0183410
37.67,397.466,11.509,98.925,-0.0193514
37.89,399.666,11.504,98.884,-0.0183232
38.11,401.866,11.499,98.841,-0.0206676
38.33,404.067,11.494,98.795,-0.0215024
38.55,406.267,11.488,98.748,-0.0219974
38.77,408.468,11.482,98.698,-0.0223657
38.99,410.668,11.476,98.646,-0.0245968
39.21,412.868,11.47,98.59,-0.0263476
39.43,415.069,11.463,98.53,-0.0259746
39.64,417.269,11.456,98.471,-0.0296070
39.86,419.47,11.448,98.405,-0.0309898
40.08,421.67,11.44,98.335,-0.0319290
40.3,423.87,11.432,98.263,-0.0327111
40.52,426.071,11.423,98.189,-0.0346132
40.74,428.271,11.414,98.11,-0.0365402
40.96,430.472,11.404,98.027,-0.0383670
41.18,432.672,11.394,97.94,-0.0410847
41.4,434.872,11.383,97.846,-0.0449584
41.63,437.073,11.371,97.742,-0.0501864
41.85,439.273,11.358,97.629,-0.0537452
42.07,441.473,11.344,97.507,-0.0571313
42.28,443.674,11.328,97.374,-0.0645471
42.5,445.874,11.311,97.224,-0.0725286
42.73,448.075,11.292,97.058,-0.0815503
42.94,450.275,11.27,96.874,-0.0841044
43.16,452.475,11.246,96.671,-0.1070110
43.38,454.676,11.216,96.412,-0.1269650
43.6,456.876,11.181,96.107,-0.1487140
43.82,459.077,11.141,95.76,-0.1673530
44.04,461.277,11.096,95.376,-0.1760230
44.26,463.477,11.046,94.949,-0.1943340
44.48,465.678,10.99,94.462,-0.2393910
44.7,467.878,10.925,93.909,-0.2699720
44.92,470.079,10.852,93.284,-0.2781620
45.14,472.279,10.773,92.603,-0.3652680
45.36,474.479,10.672,91.736,-0.4395780
45.58,476.68,10.555,90.731,-0.5121680
45.81,478.88,10.418,89.553,-0.5499080
46.03,481.081,10.266,88.242,-0.6680640
46.25,483.281,10.087,86.701,-0.6892660
46.47,485.481,9.879,84.914,-0.9682310
46.69,487.682,9.632,82.796,-1.03793
46.91,489.882,9.348,80.353,-1.22876
47.13,492.083,9.015,77.486,-1.40387
47.35,494.283,8.626,74.149,-1.66539
47.57,496.483,8.181,70.323,-1.88835
47.79,498.684,7.67,65.931,-2.15588
48.01,500.884,7.079,60.851,-2.34756
48.23,503.084,6.414,55.128,-2.58143
48.45,505.285,5.695,48.956,-2.98205
48.68,507.485,4.864,41.811,-4.21504
48.9,509.686,3.994,34.33,-3.02451
49.1,511.886,3.165,27.205,-3.36798
49.32,514.086,2.342,20.133,-2.99571
49.53,516.287,1.617,13.899,-2.62601
49.76,518.487,0.9830000,8.446,-2.17623
49.98,520.688,0.5470000,4.699,-1.32207
50.2,522.888,0.2920000,2.508,-0.6756330
50.42,525.088,0.1780000,1.533,-0.2424390
50.64,527.289,0.1470000,1.262,-0.0538826
50.86,529.489,0.1350000,1.157,-0.0342757
51.09,531.69,0.1290000,1.107,-0.0135815
51.31,533.89,0.1270000,1.089,-0.0044592
51.53,536.09,0.1260000,1.082,-0.0020979
51.75,538.291,0.1260000,1.079,-0.0007800
51.97,540.491,0.1250000,1.078,-0.0001699
52.19,542.692,0.1250000,1.077,0.0001824
52.41,544.892,0.1250000,1.077,-0.0000772
52.64,547.092,0.1250000,1.076,-0.0002820
52.86,549.293,0.1250000,1.076,-0.0003276
53.07,551.493,0.1250000,1.076,-0.0002878
53.29,553.694,0.1250000,1.075,-0.0006220
53.51,555.894,0.1250000,1.075,-0.0004508
53.73,558.094,0.1250000,1.075,-0.0002587
53.95,560.295,0.1250000,1.074,-0.0001557
54.17,562.495,0.1250000,1.074,-0.0005127
54.39,564.695,0.1250000,1.073,0.0000063
54.6,566.896,0.1250000,1.072,-0.0003548
54.82,569.096,0.1250000,1.071,-0.0007102
55.04,571.297,0.1240000,1.07,-0.0006590
55.26,573.497,0.1240000,1.068,-0.0002110
55.48,575.697,0.1240000,1.067,-0.0011820
55.69,577.898,0.1240000,1.065,-0.0011983
55.92,580.098,0.1240000,1.064,-0.0006444
56.14,582.299,0.1240000,1.062,-0.0004087
56.36,584.499,0.1230000,1.061,-0.0007208
56.58,586.699,0.1230000,1.059,-0.0005144
56.8,588.9,0.1230000,1.058,-0.0011204
56.91,590,0.1230000,1.057,-0.0010433