File: R/rHDPE_App/app/www/Output/TGA/Condensed_Data/Resin3_2_.csv
0.9100000,30,12.384,100.036,0.0009798
1.18,32.2004,12.385,100.044,0.0031233
1.43,34.4008,12.386,100.049,-0.0009651
1.67,36.6012,12.386,100.053,0.0027260
1.91,38.8016,12.387,100.058,0.0001465
2.14,41.002,12.387,100.061,-0.0003873
2.37,43.2024,12.388,100.066,0.0016814
2.6,45.4028,12.388,100.069,0.0021970
2.83,47.6031,12.389,100.073,0.0019952
3.06,49.8035,12.389,100.077,0.0016556
3.28,52.0039,12.39,100.081,0.0015994
3.51,54.2043,12.39,100.085,0.0012644
3.73,56.4047,12.391,100.088,0.0016790
3.96,58.6051,12.391,100.092,0.0014866
4.18,60.8055,12.391,100.094,0.0017610
4.4,63.0059,12.392,100.098,0.0015725
4.63,65.2063,12.392,100.101,0.0017520
4.85,67.4067,12.393,100.104,0.0011968
5.07,69.6071,12.393,100.107,0.0006429
5.29,71.8075,12.393,100.11,0.0008728
5.51,74.0079,12.394,100.112,0.0010559
5.73,76.2083,12.394,100.114,0.0004581
5.95,78.4086,12.394,100.116,0.0009619
6.17,80.609,12.394,100.118,0.0011904
6.39,82.8094,12.395,100.121,0.0011442
6.61,85.0098,12.395,100.122,0.0008703
6.83,87.2102,12.395,100.124,0.0009616
7.05,89.4106,12.395,100.126,0.0000457
7.27,91.611,12.396,100.128,0.0007318
7.49,93.8114,12.396,100.129,0.0011442
7.71,96.0118,12.396,100.13,0.0002747
7.93,98.2122,12.396,100.132,0.0004118
8.15,100.413,12.396,100.132,0.0006872
8.37,102.613,12.396,100.133,0.0003666
8.59,104.813,12.396,100.134,0.0003205
8.81,107.014,12.396,100.135,0.0004579
9.03,109.214,12.396,100.136,-0.0001374
9.25,111.415,12.397,100.136,0.0002288
9.47,113.615,12.397,100.137,0.0002747
9.69,115.815,12.397,100.137,-0.0000458
9.91,118.016,12.397,100.137,0.0000458
10.13,120.216,12.397,100.138,0.0001833
10.35,122.417,12.397,100.138,0.0007337
10.57,124.617,12.397,100.138,0.0000917
10.79,126.817,12.397,100.139,-0.0000917
11.01,129.018,12.397,100.139,0.0006878
11.23,131.218,12.397,100.14,-0.0000000
11.45,133.418,12.397,100.141,0.0002292
11.67,135.619,12.397,100.142,0.0005037
11.89,137.819,12.397,100.142,-0.0002738
12.11,140.02,12.397,100.141,-0.0013190
12.33,142.22,12.397,100.136,-0.0021283
12.55,144.42,12.396,100.131,-0.0027243
12.77,146.621,12.396,100.128,-0.0020610
12.99,148.821,12.395,100.125,-0.0007362
13.21,151.022,12.395,100.123,-0.0010588
13.43,153.222,12.395,100.121,-0.0008726
13.65,155.422,12.394,100.119,-0.0011031
13.87,157.623,12.394,100.117,-0.0009177
14.09,159.823,12.394,100.115,-0.0010545
14.31,162.024,12.394,100.113,-0.0007796
14.53,164.224,12.394,100.112,0.0000917
14.75,166.424,12.393,100.11,-0.0011461
14.98,168.625,12.393,100.108,-0.0005048
15.2,170.825,12.393,100.106,-0.0017885
15.42,173.026,12.393,100.104,-0.0014207
15.63,175.226,12.392,100.102,-0.0005040
15.85,177.426,12.392,100.1,-0.0009620
16.08,179.627,12.392,100.098,-0.0016043
16.3,181.827,12.392,100.096,-0.0007337
16.52,184.028,12.391,100.094,-0.0012366
16.74,186.228,12.391,100.092,-0.0010078
16.96,188.428,12.391,100.09,-0.0012370
17.18,190.629,12.39,100.087,-0.0005952
17.4,192.829,12.39,100.084,-0.0014214
17.62,195.029,12.39,100.082,-0.0011006
17.84,197.23,12.389,100.079,-0.0010530
18.06,199.43,12.389,100.077,-0.0019227
18.28,201.631,12.389,100.074,-0.0011461
18.5,203.831,12.389,100.072,-0.0015110
18.72,206.031,12.388,100.069,-0.0013728
18.94,208.232,12.388,100.066,-0.0011471
19.16,210.432,12.388,100.063,-0.0014665
19.38,212.633,12.387,100.06,-0.0012821
19.6,214.833,12.387,100.057,-0.0016494
19.82,217.033,12.386,100.054,-0.0011444
20.04,219.234,12.386,100.051,-0.0015133
20.26,221.434,12.386,100.048,-0.0010084
20.48,223.635,12.385,100.045,-0.0013284
20.7,225.835,12.385,100.042,-0.0013736
20.92,228.035,12.384,100.039,-0.0013283
21.14,230.236,12.384,100.035,-0.0010085
21.36,232.436,12.384,100.032,-0.0012832
21.58,234.637,12.383,100.029,-0.0014665
21.8,236.837,12.383,100.025,-0.0016486
22.02,239.037,12.382,100.022,-0.0015575
22.24,241.238,12.382,100.019,-0.0015117
22.46,243.438,12.382,100.015,-0.0008708
22.68,245.639,12.381,100.012,-0.0015121
22.9,247.839,12.381,100.009,-0.0019243
23.12,250.039,12.38,100.005,-0.0010539
23.34,252.24,12.38,100.001,-0.0019248
23.57,254.44,12.379,99.998,-0.0011908
23.78,256.64,12.379,99.994,-0.0008702
24.01,258.841,12.379,99.99,-0.0009615
24.23,261.041,12.378,99.987,-0.0018325
24.44,263.242,12.378,99.983,-0.0016509
24.67,265.442,12.377,99.98,-0.0015568
24.88,267.642,12.377,99.975,-0.0028403
25.11,269.843,12.376,99.97,-0.0016031
25.33,272.043,12.375,99.966,-0.0019689
25.54,274.244,12.375,99.961,-0.0026999
25.77,276.444,12.374,99.957,-0.0016476
25.98,278.644,12.374,99.953,-0.0018325
26.21,280.845,12.373,99.948,-0.0025216
26.43,283.045,12.373,99.944,-0.0017844
26.65,285.246,12.372,99.939,-0.0018321
26.87,287.446,12.372,99.934,-0.0016016
27.09,289.646,12.371,99.929,-0.0017857
27.31,291.847,12.37,99.925,-0.0018315
27.53,294.047,12.37,99.919,-0.0023797
27.75,296.248,12.369,99.914,-0.0024276
27.97,298.448,12.368,99.908,-0.0022915
28.19,300.648,12.368,99.903,-0.0024267
28.41,302.849,12.367,99.898,-0.0027946
28.63,305.049,12.366,99.892,-0.0021090
28.85,307.25,12.366,99.886,-0.0025641
29.07,309.45,12.365,99.881,-0.0023810
29.29,311.65,12.364,99.875,-0.0027029
29.51,313.851,12.363,99.869,-0.0031158
29.73,316.051,12.363,99.863,-0.0028873
29.95,318.251,12.362,99.857,-0.0029277
30.17,320.452,12.361,99.85,-0.0027915
30.39,322.652,12.36,99.844,-0.0037109
30.61,324.853,12.36,99.837,-0.0027473
30.83,327.053,12.359,99.83,-0.0034329
31.05,329.253,12.358,99.823,-0.0027930
31.27,331.454,12.357,99.816,-0.0028830
31.49,333.654,12.356,99.809,-0.0035276
31.71,335.855,12.355,99.801,-0.0037546
31.93,338.055,12.354,99.794,-0.0032051
32.15,340.255,12.353,99.786,-0.0032492
32.37,342.456,12.352,99.779,-0.0033406
32.59,344.656,12.351,99.77,-0.0035714
32.81,346.857,12.35,99.762,-0.0033883
33.03,349.057,12.349,99.754,-0.0039355
33.25,351.257,12.348,99.745,-0.0035727
33.47,353.458,12.347,99.736,-0.0035289
33.69,355.658,12.346,99.727,-0.0044905
33.91,357.859,12.345,99.717,-0.0044856
34.13,360.059,12.343,99.707,-0.0047161
34.35,362.259,12.342,99.696,-0.0060931
34.57,364.46,12.341,99.685,-0.0050395
34.79,366.66,12.339,99.673,-0.0057618
35.01,368.861,12.338,99.66,-0.0054508
35.23,371.061,12.336,99.647,-0.0059557
35.45,373.261,12.334,99.633,-0.0061322
35.67,375.462,12.332,99.618,-0.0076007
35.89,377.662,12.33,99.602,-0.0076881
36.11,379.862,12.328,99.584,-0.0084676
36.33,382.063,12.326,99.563,-0.0098389
36.55,384.263,12.323,99.541,-0.0107104
36.77,386.464,12.32,99.516,-0.0120834
36.99,388.664,12.316,99.488,-0.0137187
37.21,390.864,12.312,99.457,-0.0154678
37.43,393.065,12.308,99.422,-0.0168498
37.65,395.265,12.303,99.384,-0.0185337
37.87,397.466,12.298,99.342,-0.0202727
38.09,399.666,12.292,99.295,-0.0218864
38.31,401.866,12.286,99.244,-0.0250366
38.53,404.067,12.279,99.186,-0.0272436
38.75,406.267,12.271,99.122,-0.0304487
38.97,408.468,12.262,99.05,-0.0351062
39.19,410.668,12.252,98.968,-0.0395147
39.41,412.868,12.24,98.875,-0.0447017
39.63,415.069,12.227,98.766,-0.0570369
39.85,417.269,12.21,98.629,-0.0673623
40.07,419.47,12.191,98.472,-0.0746296
40.29,421.67,12.169,98.299,-0.0835621
40.51,423.87,12.144,98.095,-0.1035800
40.73,426.071,12.112,97.835,-0.1306040
40.95,428.271,12.073,97.521,-0.1658120
41.17,430.472,12.028,97.158,-0.1756640
41.39,432.672,11.978,96.755,-0.1897440
41.61,434.872,11.919,96.275,-0.2451410
41.83,437.073,11.845,95.68,-0.2904430
42.05,439.273,11.76,94.993,-0.3399360
42.27,441.473,11.655,94.147,-0.4199730
42.49,443.674,11.531,93.142,-0.4913000
42.71,445.874,11.388,91.993,-0.5505950
42.93,448.075,11.218,90.62,-0.7414350
43.15,450.275,11.01,88.938,-0.8693870
43.37,452.475,10.757,86.891,-1.03567
43.59,454.676,10.449,84.407,-1.22091
43.81,456.876,10.091,81.516,-1.50785
44.03,459.077,9.652,77.964,-1.82075
44.25,461.277,9.13,73.752,-2.05549
44.47,463.477,8.507,68.718,-2.37901
44.69,465.678,7.794,62.957,-2.82076
44.91,467.878,6.979,56.376,-3.18413
45.13,470.079,6.066,49.003,-3.59708
45.35,472.279,5.074,40.985,-3.73622
45.57,474.479,4.035,32.593,-3.85679
45.79,476.68,3.008,24.294,-3.59118
46.01,478.88,2.044,16.514,-3.29106
46.23,481.081,1.243,10.037,-2.59985
46.45,483.281,0.6580000,5.316,-1.66364
46.66,485.481,0.3480000,2.814,-0.6705630
46.88,487.682,0.2470000,1.995,-0.1477130
47.11,489.882,0.2290000,1.849,-0.0424323
47.33,492.083,0.2210000,1.784,-0.0177246
47.55,494.283,0.2180000,1.76,-0.0060244
47.77,496.483,0.2170000,1.751,-0.0030042
47.99,498.684,0.2160000,1.748,-0.0006269
48.21,500.884,0.2160000,1.747,-0.0004736
48.43,503.084,0.2160000,1.746,-0.0002782
48.65,505.285,0.2160000,1.746,-0.0001507
48.87,507.485,0.2160000,1.746,0.0000395
49.09,509.686,0.2160000,1.746,-0.0005397
49.31,511.886,0.2160000,1.746,-0.0003235
49.53,514.086,0.2160000,1.746,0.0002225
49.75,516.287,0.2160000,1.746,0.0003577
49.97,518.487,0.2160000,1.746,-0.0000136
50.19,520.688,0.2160000,1.746,-0.0003671
50.41,522.888,0.2160000,1.746,-0.0003975
50.63,525.088,0.2160000,1.745,-0.0001294
50.85,527.289,0.2160000,1.745,0.0004116
51.07,529.489,0.2160000,1.745,0.0000406
51.29,531.69,0.2160000,1.745,-0.0003582
51.51,533.89,0.2160000,1.744,-0.0000336
51.73,536.09,0.2160000,1.744,-0.0003132
51.95,538.291,0.2160000,1.744,-0.0004314
52.17,540.491,0.2160000,1.743,0.0000806
52.39,542.692,0.2160000,1.743,0.0000614
52.61,544.892,0.2160000,1.742,-0.0003536
52.83,547.092,0.2160000,1.742,-0.0001051
53.05,549.293,0.2160000,1.741,0.0000058
53.27,551.493,0.2160000,1.741,-0.0001679
53.49,553.694,0.2150000,1.741,-0.0003732
53.71,555.894,0.2150000,1.74,-0.0004856
53.93,558.094,0.2150000,1.739,-0.0003270
54.15,560.295,0.2150000,1.738,-0.0001244
54.37,562.495,0.2150000,1.737,-0.0002116
54.59,564.695,0.2150000,1.737,-0.0003029
54.81,566.896,0.2150000,1.735,-0.0006389
55.03,569.096,0.2150000,1.734,-0.0005332
55.25,571.297,0.2140000,1.732,-0.0009109
55.47,573.497,0.2140000,1.731,-0.0009816
55.69,575.697,0.2140000,1.729,-0.0011327
55.91,577.898,0.2140000,1.727,-0.0007190
56.13,580.098,0.2140000,1.725,-0.0008207
56.34,582.299,0.2130000,1.724,-0.0009202
56.56,584.499,0.2130000,1.722,-0.0009948
56.79,586.699,0.2130000,1.72,-0.0007417
57.01,588.9,0.2130000,1.719,-0.0008726
57.11,590,0.2130000,1.718,-0.0007184