File: R/rHDPE_App/app/www/Output/TGA/Condensed_Data/Resin13_0_.csv
0.6500000,30,17.658,100.012,0.0048191
0.9500000,32.2004,17.659,100.019,0.0021903
1.21,34.4008,17.66,100.024,0.0024085
1.45,36.6012,17.661,100.027,0.0016687
1.69,38.8016,17.661,100.029,0.0006924
1.93,41.002,17.661,100.031,0.0010735
2.16,43.2024,17.662,100.033,0.0009685
2.39,45.4028,17.662,100.035,0.0011558
2.62,47.6031,17.663,100.037,0.0018153
2.85,49.8035,17.663,100.04,0.0000474
3.08,52.0039,17.663,100.04,0.0007078
3.31,54.2043,17.663,100.042,0.0008441
3.53,56.4047,17.664,100.044,0.0002334
3.76,58.6051,17.664,100.045,0.0006049
3.98,60.8055,17.664,100.047,0.0006494
4.2,63.0059,17.665,100.049,0.0009261
4.42,65.2063,17.665,100.05,0.0004157
4.65,67.4067,17.665,100.052,0.0009218
4.86,69.6071,17.665,100.053,0.0001841
5.09,71.8075,17.666,100.055,0.0006438
5.31,74.0079,17.666,100.056,0.0005967
5.53,76.2083,17.666,100.057,0.0003669
5.75,78.4086,17.666,100.058,0.0004581
5.97,80.609,17.666,100.059,0.0003206
6.19,82.8094,17.667,100.06,0.0008244
6.41,85.0098,17.667,100.061,0.0004125
6.63,87.2102,17.667,100.062,0.0004577
6.85,89.4106,17.667,100.063,0.0002287
7.07,91.611,17.667,100.063,0.0005031
7.29,93.8114,17.667,100.063,0.0001371
7.51,96.0118,17.667,100.064,0.0005032
7.73,98.2122,17.667,100.064,0.0001373
7.95,100.413,17.667,100.064,-0.0000457
8.17,102.613,17.667,100.065,0.0000000
8.39,104.813,17.667,100.065,-0.0000916
8.61,107.014,17.667,100.065,-0.0004114
8.83,109.214,17.667,100.065,0.0000000
9.05,111.415,17.667,100.064,-0.0000915
9.27,113.615,17.667,100.064,-0.0000458
9.49,115.815,17.667,100.064,-0.0001373
9.71,118.016,17.667,100.063,0.0002745
9.93,120.216,17.667,100.063,0.0000000
10.15,122.417,17.667,100.063,-0.0002292
10.37,124.617,17.667,100.062,-0.0001833
10.59,126.817,17.667,100.062,0.0000000
10.81,129.018,17.667,100.061,-0.0003664
11.03,131.218,17.667,100.061,-0.0004581
11.25,133.418,17.667,100.061,-0.0002749
11.47,135.619,17.667,100.06,-0.0004584
11.69,137.819,17.666,100.059,-0.0005940
11.91,140.02,17.666,100.058,-0.0012351
12.13,142.22,17.666,100.055,-0.0014127
12.35,144.42,17.665,100.051,-0.0021864
12.57,146.621,17.664,100.047,-0.0015972
12.79,148.821,17.664,100.043,-0.0015578
13.01,151.022,17.663,100.039,-0.0015130
13.23,153.222,17.662,100.036,-0.0012865
13.45,155.422,17.662,100.033,-0.0010568
13.67,157.623,17.661,100.031,-0.0013297
13.89,159.823,17.661,100.028,-0.0009174
14.11,162.024,17.66,100.025,-0.0012395
14.33,164.224,17.66,100.022,-0.0014676
14.55,166.424,17.659,100.019,-0.0011921
14.77,168.625,17.659,100.016,-0.0013305
14.99,170.825,17.658,100.012,-0.0016957
15.21,173.026,17.658,100.01,-0.0007787
15.43,175.226,17.657,100.003,-0.0035986
15.65,177.426,17.656,100,-0.0032181
15.88,179.627,17.655,99.997,-0.0015992
16.1,181.827,17.655,99.993,-0.0035788
16.31,184.028,17.654,99.989,-0.0024585
16.53,186.228,17.653,99.985,-0.0023302
16.75,188.428,17.652,99.98,-0.0025155
16.97,190.629,17.652,99.975,-0.0024281
17.19,192.829,17.651,99.97,-0.0024278
17.41,195.029,17.65,99.965,-0.0023345
17.63,197.23,17.649,99.96,-0.0023377
17.86,199.43,17.648,99.954,-0.0028396
18.08,201.631,17.647,99.949,-0.0025217
18.29,203.831,17.646,99.943,-0.0026588
18.52,206.031,17.645,99.938,-0.0024732
18.73,208.232,17.644,99.932,-0.0027477
18.96,210.432,17.643,99.926,-0.0021540
19.18,212.633,17.642,99.921,-0.0027050
19.4,214.833,17.641,99.914,-0.0026549
19.62,217.033,17.64,99.908,-0.0027047
19.84,219.234,17.639,99.902,-0.0029331
20.06,221.434,17.638,99.896,-0.0027477
20.28,223.635,17.636,99.889,-0.0027943
20.5,225.835,17.635,99.883,-0.0031613
20.72,228.035,17.634,99.876,-0.0030261
20.94,230.236,17.633,99.869,-0.0031156
21.16,232.436,17.632,99.862,-0.0031608
21.38,234.637,17.63,99.855,-0.0030256
21.6,236.837,17.629,99.848,-0.0034815
21.82,239.037,17.628,99.84,-0.0033409
22.04,241.238,17.626,99.833,-0.0034830
22.26,243.438,17.625,99.826,-0.0034824
22.48,245.639,17.624,99.818,-0.0036590
22.7,247.839,17.622,99.81,-0.0035799
22.92,250.039,17.621,99.802,-0.0037580
23.14,252.24,17.62,99.794,-0.0037962
23.36,254.44,17.618,99.786,-0.0036647
23.58,256.64,17.617,99.778,-0.0040278
23.8,258.841,17.615,99.769,-0.0039413
24.02,261.041,17.614,99.761,-0.0039320
24.24,263.242,17.612,99.752,-0.0038969
24.46,265.442,17.611,99.744,-0.0038904
24.68,267.642,17.609,99.735,-0.0039850
24.9,269.843,17.607,99.725,-0.0043546
25.12,272.043,17.606,99.716,-0.0043546
25.34,274.244,17.604,99.707,-0.0040249
25.56,276.444,17.603,99.697,-0.0046245
25.78,278.644,17.601,99.688,-0.0043080
26,280.845,17.599,99.678,-0.0045305
26.22,283.045,17.597,99.668,-0.0044429
26.44,285.246,17.596,99.658,-0.0043547
26.66,287.446,17.594,99.648,-0.0048059
26.88,289.646,17.592,99.637,-0.0048051
27.1,291.847,17.59,99.627,-0.0048517
27.32,294.047,17.588,99.616,-0.0050917
27.54,296.248,17.586,99.605,-0.0048535
27.76,298.448,17.584,99.594,-0.0049908
27.98,300.648,17.582,99.583,-0.0056391
28.2,302.849,17.58,99.571,-0.0053094
28.42,305.049,17.578,99.559,-0.0055911
28.64,307.25,17.576,99.547,-0.0059088
28.87,309.45,17.574,99.535,-0.0054457
29.08,311.65,17.572,99.522,-0.0060864
29.31,313.851,17.569,99.509,-0.0057745
29.53,316.051,17.567,99.496,-0.0059110
29.74,318.251,17.565,99.483,-0.0060507
29.97,320.452,17.562,99.469,-0.0063645
30.18,322.652,17.56,99.455,-0.0064021
30.41,324.853,17.557,99.44,-0.0065970
30.63,327.053,17.554,99.425,-0.0076050
30.85,329.253,17.552,99.409,-0.0069991
31.07,331.454,17.549,99.393,-0.0070462
31.29,333.654,17.546,99.377,-0.0078383
31.51,335.855,17.543,99.36,-0.0081427
31.73,338.055,17.54,99.342,-0.0081960
31.95,340.255,17.536,99.323,-0.0086491
32.17,342.456,17.533,99.304,-0.0087406
32.39,344.656,17.529,99.283,-0.0098353
32.61,346.857,17.526,99.262,-0.0101499
32.83,349.057,17.522,99.239,-0.0109492
33.05,351.257,17.517,99.214,-0.0119048
33.27,353.458,17.512,99.187,-0.0127514
33.49,355.658,17.507,99.157,-0.0141284
33.71,357.859,17.501,99.125,-0.0152015
33.93,360.059,17.495,99.09,-0.0166972
34.15,362.259,17.489,99.053,-0.0172461
34.37,364.46,17.482,99.014,-0.0180861
34.59,366.66,17.475,98.973,-0.0186595
34.81,368.861,17.467,98.932,-0.0190232
35.03,371.061,17.46,98.889,-0.0197730
35.25,373.261,17.452,98.844,-0.0209899
35.47,375.462,17.444,98.798,-0.0213135
35.69,377.662,17.435,98.749,-0.0227356
35.91,379.862,17.426,98.698,-0.0244427
36.13,382.063,17.417,98.644,-0.0248396
36.35,384.263,17.407,98.587,-0.0266941
36.57,386.464,17.396,98.528,-0.0276508
36.79,388.664,17.385,98.466,-0.0286788
37.01,390.864,17.374,98.4,-0.0304029
37.23,393.065,17.361,98.332,-0.0327064
37.45,395.265,17.349,98.26,-0.0336986
37.67,397.466,17.335,98.184,-0.0353157
37.89,399.666,17.321,98.103,-0.0381862
38.11,401.866,17.306,98.018,-0.0399579
38.33,404.067,17.29,97.925,-0.0437970
38.55,406.267,17.272,97.825,-0.0473270
38.77,408.468,17.253,97.717,-0.0510999
38.99,410.668,17.232,97.598,-0.0576395
39.21,412.868,17.207,97.457,-0.0702588
39.43,415.069,17.173,97.262,-0.0907341
39.65,417.269,17.135,97.051,-0.1049730
39.87,419.47,17.094,96.815,-0.1121610
40.09,421.67,17.047,96.55,-0.1233470
40.31,423.87,16.992,96.237,-0.1472530
40.53,426.071,16.928,95.875,-0.1930530
40.75,428.271,16.852,95.445,-0.1972260
40.97,430.472,16.768,94.972,-0.2259250
41.19,432.672,16.675,94.443,-0.2602510
41.41,434.872,16.562,93.803,-0.3344930
41.63,437.073,16.42,93.001,-0.4529210
41.85,439.273,16.29,92.263,-0.4098180
42.07,441.473,16.111,91.247,-0.5372700
42.29,443.674,15.905,90.084,-0.5441560
42.51,445.874,15.662,88.709,-0.6222530
42.73,448.075,15.373,87.068,-0.7881650
42.95,450.275,15.038,85.171,-0.9403740
43.17,452.475,14.639,82.91,-1.15427
43.39,454.676,14.18,80.31,-1.33686
43.61,456.876,13.63,77.197,-1.60755
43.83,459.077,12.997,73.61,-1.8367
44.05,461.277,12.262,69.449,-2.06342
44.27,463.477,11.408,64.614,-2.33068
44.49,465.678,10.429,59.067,-2.65467
44.71,467.878,9.332,52.853,-3.06748
44.93,470.079,8.123,46.006,-3.31057
45.15,472.279,6.812,38.585,-3.40859
45.37,474.479,5.438,30.798,-3.53344
45.59,476.68,4.158,23.548,-3.20915
45.81,478.88,2.898,16.412,-3.02665
46.03,481.081,1.858,10.521,-2.40305
46.25,483.281,1.044,5.915,-1.69423
46.46,485.481,0.5330000,3.019,-0.9749790
46.68,487.682,0.2820000,1.597,-0.3786820
46.9,489.882,0.2050000,1.159,-0.0740888
47.12,492.083,0.1910000,1.079,-0.0255982
47.34,494.283,0.1840000,1.04,-0.0110288
47.57,496.483,0.1810000,1.024,-0.0042084
47.79,498.684,0.1800000,1.017,-0.0020463
48.01,500.884,0.1790000,1.014,-0.0014396
48.23,503.084,0.1790000,1.012,-0.0004434
48.44,505.285,0.1790000,1.012,-0.0001080
48.66,507.485,0.1790000,1.012,0.0000430
48.89,509.686,0.1790000,1.011,-0.0005097
49.11,511.886,0.1780000,1.01,-0.0004158
49.33,514.086,0.1780000,1.009,-0.0001324
49.54,516.287,0.1780000,1.008,-0.0003098
49.76,518.487,0.1780000,1.008,-0.0003531
49.99,520.688,0.1780000,1.008,-0.0002919
50.21,522.888,0.1780000,1.007,-0.0010471
50.43,525.088,0.1780000,1.005,-0.0007333
50.64,527.289,0.1770000,1.004,-0.0006330
50.86,529.489,0.1770000,1.002,-0.0000179
51.08,531.69,0.1770000,1.001,-0.0010238
51.3,533.89,0.1760000,0.9990000,-0.0005975
51.53,536.09,0.1760000,0.9970000,-0.0009339
51.74,538.291,0.1760000,0.9950000,-0.0014032
51.96,540.491,0.1750000,0.9930000,-0.0015606
52.18,542.692,0.1750000,0.9910000,-0.0007051
52.4,544.892,0.1750000,0.9890000,-0.0012371
52.62,547.092,0.1740000,0.9870000,-0.0014193
52.84,549.293,0.1740000,0.9830000,-0.0013310
53.06,551.493,0.1730000,0.9810000,-0.0008342
53.28,553.694,0.1730000,0.9790000,-0.0006029
53.5,555.894,0.1730000,0.9780000,-0.0005806
53.72,558.094,0.1730000,0.9770000,-0.0002162
53.94,560.295,0.1720000,0.9770000,0.0000522
54.16,562.495,0.1720000,0.9760000,-0.0010828
54.38,564.695,0.1720000,0.9750000,0.0001511
54.6,566.896,0.1720000,0.9740000,0.0001408
54.82,569.096,0.1720000,0.9730000,-0.0003102
55.04,571.297,0.1720000,0.9720000,-0.0005711
55.26,573.497,0.1710000,0.9710000,-0.0002826
55.48,575.697,0.1710000,0.9700000,-0.0008054
55.7,577.898,0.1710000,0.9680000,-0.0009230
55.92,580.098,0.1710000,0.9660000,-0.0009508
56.14,582.299,0.1700000,0.9640000,-0.0008003
56.36,584.499,0.1700000,0.9610000,-0.0011879
56.58,586.699,0.1690000,0.9590000,-0.0010618
56.8,588.9,0.1690000,0.9560000,-0.0012318
56.91,590,0.1690000,0.9550000,-0.0008924