File: R/rHDPE_App/app/www/Output/TGA/Condensed_Data/Resin9_0_.csv
0.6800000,30,11.015,100.02,0.0045686
0.9800000,32.2004,11.016,100.031,0.0008857
1.23,34.4008,11.017,100.037,0.0003112
1.48,36.6012,11.017,100.04,0.0015612
1.72,38.8016,11.017,100.044,0.0025710
1.95,41.002,11.018,100.047,0.0026854
2.19,43.2024,11.018,100.051,0.0016965
2.42,45.4028,11.019,100.054,0.0026474
2.65,47.6031,11.019,100.057,0.0019582
2.88,49.8035,11.019,100.061,0.0009019
3.11,52.0039,11.02,100.064,0.0016500
3.33,54.2043,11.02,100.067,0.0011258
3.56,56.4047,11.02,100.071,0.0017762
3.78,58.6051,11.021,100.074,0.0014428
4.01,60.8055,11.021,100.076,0.0015321
4.23,63.0059,11.021,100.079,0.0010645
4.45,65.2063,11.022,100.082,0.0013381
4.67,67.4067,11.022,100.084,0.0009674
4.89,69.6071,11.022,100.087,0.0011957
5.11,71.8075,11.022,100.089,0.0007354
5.34,74.0079,11.023,100.091,0.0012385
5.55,76.2083,11.023,100.093,0.0005958
5.78,78.4086,11.023,100.095,0.0003208
6,80.609,11.023,100.097,0.0010524
6.21,82.8094,11.023,100.098,0.0006871
6.44,85.0098,11.024,100.099,0.0008697
6.66,87.2102,11.024,100.1,0.0008690
6.88,89.4106,11.024,100.102,0.0005035
7.1,91.611,11.024,100.103,0.0002284
7.31,93.8114,11.024,100.104,0.0005947
7.54,96.0118,11.024,100.105,0.0003660
7.75,98.2122,11.024,100.106,0.0005032
7.98,100.413,11.024,100.106,0.0005947
8.2,102.613,11.024,100.106,-0.0001374
8.41,104.813,11.024,100.106,-0.0000000
8.63,107.014,11.024,100.107,0.0001374
8.85,109.214,11.024,100.106,0.0000000
9.08,111.415,11.024,100.106,0.0000458
9.3,113.615,11.024,100.106,0.0000457
9.52,115.815,11.024,100.106,-0.0001833
9.73,118.016,11.024,100.106,-0.0000459
9.95,120.216,11.024,100.106,-0.0003666
10.18,122.417,11.024,100.106,-0.0001374
10.4,124.617,11.024,100.106,0.0000000
10.62,126.817,11.024,100.106,0.0001378
10.84,129.018,11.024,100.106,-0.0003671
11.06,131.218,11.024,100.107,-0.0002291
11.28,133.418,11.024,100.105,-0.0007305
11.5,135.619,11.024,100.103,-0.0019190
11.72,137.819,11.023,100.097,-0.0029527
11.93,140.02,11.023,100.091,-0.0025494
12.15,142.22,11.022,100.086,-0.0024249
12.38,144.42,11.022,100.082,-0.0020688
12.6,146.621,11.021,100.078,-0.0016544
12.82,148.821,11.021,100.075,-0.0016073
13.04,151.022,11.02,100.071,-0.0015585
13.26,153.222,11.02,100.067,-0.0018813
13.48,155.422,11.02,100.063,-0.0022457
13.7,157.623,11.019,100.058,-0.0022904
13.92,159.823,11.019,100.054,-0.0026135
14.14,162.024,11.018,100.049,-0.0023831
14.36,164.224,11.017,100.044,-0.0025653
14.58,166.424,11.017,100.039,-0.0026111
14.8,168.625,11.016,100.033,-0.0026120
15.02,170.825,11.016,100.027,-0.0030706
15.24,173.026,11.015,100.021,-0.0034341
15.46,175.226,11.014,100.015,-0.0026598
15.68,177.426,11.014,100.009,-0.0030214
15.9,179.627,11.013,100.003,-0.0026569
16.12,181.827,11.012,99.996,-0.0029729
16.34,184.028,11.011,99.99,-0.0031599
16.56,186.228,11.011,99.983,-0.0033465
16.78,188.428,11.01,99.975,-0.0034366
17,190.629,11.009,99.968,-0.0034799
17.22,192.829,11.008,99.96,-0.0033898
17.44,195.029,11.007,99.952,-0.0034350
17.66,197.23,11.007,99.945,-0.0040363
17.88,199.43,11.006,99.937,-0.0039887
18.1,201.631,11.005,99.929,-0.0035773
18.32,203.831,11.004,99.921,-0.0036205
18.54,206.031,11.003,99.912,-0.0035344
18.76,208.232,11.002,99.904,-0.0040304
18.98,210.432,11.001,99.895,-0.0039846
19.2,212.633,11,99.887,-0.0034856
19.42,214.833,10.999,99.878,-0.0040665
19.64,217.033,10.998,99.87,-0.0039791
19.86,219.234,10.997,99.861,-0.0038610
20.08,221.434,10.996,99.852,-0.0044065
20.3,223.635,10.995,99.843,-0.0039701
20.52,225.835,10.994,99.834,-0.0043230
20.74,228.035,10.993,99.825,-0.0034840
20.97,230.236,10.992,99.816,-0.0038930
21.18,232.436,10.991,99.808,-0.0039334
21.41,234.637,10.99,99.799,-0.0041247
21.63,236.837,10.989,99.79,-0.0039883
21.84,239.037,10.988,99.78,-0.0041171
22.07,241.238,10.987,99.771,-0.0046280
22.28,243.438,10.986,99.762,-0.0042132
22.51,245.639,10.985,99.753,-0.0040282
22.73,247.839,10.984,99.743,-0.0047187
22.95,250.039,10.983,99.734,-0.0041724
23.17,252.24,10.982,99.725,-0.0043466
23.39,254.44,10.981,99.715,-0.0041678
23.61,256.64,10.98,99.706,-0.0050851
23.83,258.841,10.979,99.696,-0.0046763
24.05,261.041,10.978,99.687,-0.0040367
24.27,263.242,10.977,99.677,-0.0042582
24.49,265.442,10.976,99.667,-0.0046601
24.71,267.642,10.975,99.657,-0.0043159
24.93,269.843,10.974,99.648,-0.0042147
25.15,272.043,10.973,99.638,-0.0040766
25.37,274.244,10.972,99.628,-0.0043940
25.59,276.444,10.971,99.618,-0.0046330
25.81,278.644,10.969,99.608,-0.0049451
26.03,280.845,10.968,99.598,-0.0050274
26.25,283.045,10.967,99.588,-0.0036132
26.47,285.246,10.966,99.578,-0.0044618
26.69,287.446,10.965,99.567,-0.0054089
26.91,289.646,10.964,99.557,-0.0049495
27.13,291.847,10.963,99.546,-0.0047161
27.35,294.047,10.962,99.536,-0.0050210
27.57,296.248,10.96,99.526,-0.0045829
27.79,298.448,10.959,99.515,-0.0045453
28.01,300.648,10.958,99.504,-0.0048015
28.23,302.849,10.957,99.494,-0.0045304
28.45,305.049,10.956,99.483,-0.0048227
28.67,307.25,10.954,99.472,-0.0052131
28.89,309.45,10.953,99.461,-0.0051740
29.11,311.65,10.952,99.45,-0.0051787
29.33,313.851,10.951,99.439,-0.0048562
29.55,316.051,10.95,99.428,-0.0051376
29.77,318.251,10.948,99.417,-0.0052637
29.99,320.452,10.947,99.405,-0.0049047
30.21,322.652,10.946,99.394,-0.0052122
30.43,324.853,10.945,99.383,-0.0051310
30.65,327.053,10.943,99.371,-0.0048121
30.87,329.253,10.942,99.36,-0.0047291
31.09,331.454,10.941,99.348,-0.0054725
31.31,333.654,10.939,99.336,-0.0058310
31.53,335.855,10.938,99.324,-0.0053016
31.75,338.055,10.937,99.312,-0.0056495
31.97,340.255,10.935,99.299,-0.0057640
32.19,342.456,10.934,99.286,-0.0062237
32.41,344.656,10.933,99.273,-0.0055861
32.63,346.857,10.931,99.26,-0.0067766
32.85,349.057,10.93,99.245,-0.0069508
33.07,351.257,10.928,99.231,-0.0069965
33.29,353.458,10.926,99.215,-0.0072384
33.51,355.658,10.924,99.2,-0.0074271
33.73,357.859,10.923,99.183,-0.0076147
33.95,360.059,10.921,99.166,-0.0079096
34.17,362.259,10.919,99.148,-0.0081989
34.39,364.46,10.917,99.129,-0.0087486
34.61,366.66,10.914,99.109,-0.0094607
34.83,368.861,10.912,99.088,-0.0099779
35.05,371.061,10.91,99.065,-0.0110086
35.27,373.261,10.907,99.04,-0.0116545
35.49,375.462,10.904,99.013,-0.0123011
35.71,377.662,10.901,98.984,-0.0131989
35.93,379.862,10.897,98.953,-0.0150265
36.15,382.063,10.894,98.919,-0.0163312
36.37,384.263,10.889,98.881,-0.0179029
36.59,386.464,10.885,98.84,-0.0198079
36.81,388.664,10.88,98.793,-0.0224100
37.03,390.864,10.874,98.741,-0.0245421
37.25,393.065,10.867,98.682,-0.0285321
37.47,395.265,10.86,98.615,-0.0325511
37.69,397.466,10.852,98.54,-0.0362126
37.91,399.666,10.842,98.455,-0.0411398
38.13,401.866,10.832,98.359,-0.0465403
38.36,404.067,10.82,98.248,-0.0532276
38.57,406.267,10.806,98.124,-0.0609074
38.79,408.468,10.79,97.98,-0.0703825
39.01,410.668,10.772,97.814,-0.0807678
39.23,412.868,10.751,97.625,-0.0928702
39.45,415.069,10.725,97.392,-0.1185390
39.67,417.269,10.693,97.094,-0.1481780
39.89,419.47,10.654,96.746,-0.1618020
40.11,421.67,10.612,96.359,-0.1908720
40.33,423.87,10.563,95.922,-0.2160240
40.55,426.071,10.51,95.432,-0.2372880
40.77,428.271,10.449,94.878,-0.2694030
40.99,430.472,10.378,94.236,-0.3193240
41.21,432.672,10.295,93.481,-0.3717640
41.43,434.872,10.198,92.603,-0.4238180
41.65,437.073,10.086,91.582,-0.4940030
41.87,439.273,9.953,90.376,-0.6252960
42.09,441.473,9.79,88.901,-0.7478020
42.31,443.674,9.596,87.14,-0.8993060
42.53,445.874,9.366,85.047,-1.03208
42.75,448.075,9.09,82.545,-1.2441
42.97,450.275,8.77,79.633,-1.48836
43.19,452.475,8.388,76.166,-1.69041
43.41,454.676,7.944,72.137,-2.00834
43.64,456.876,7.432,67.489,-2.21918
43.86,459.077,6.837,62.08,-2.72975
44.08,461.277,6.156,55.896,-3.00956
44.29,463.477,5.387,48.916,-3.16832
44.51,465.678,4.554,41.353,-3.7011
44.74,467.878,3.668,33.31,-3.67681
44.96,470.079,2.779,25.233,-3.68726
45.17,472.279,1.971,17.9,-3.13683
45.39,474.479,1.269,11.525,-2.5422
45.61,476.68,0.7580000,6.883,-1.73615
45.83,478.88,0.4340000,3.939,-0.9178000
46.05,481.081,0.2820000,2.562,-0.3575210
46.27,483.281,0.2400000,2.18,-0.0486536
46.49,485.481,0.2300000,2.085,-0.0301234
46.71,487.682,0.2250000,2.042,-0.0110468
46.93,489.882,0.2230000,2.027,-0.0040685
47.16,492.083,0.2230000,2.022,-0.0014246
47.38,494.283,0.2220000,2.02,-0.0005352
47.59,496.483,0.2220000,2.019,-0.0000271
47.81,498.684,0.2220000,2.018,-0.0003917
48.04,500.884,0.2220000,2.018,-0.0000542
48.25,503.084,0.2220000,2.018,-0.0001744
48.47,505.285,0.2220000,2.018,0.0000442
48.69,507.485,0.2220000,2.018,0.0001159
48.91,509.686,0.2220000,2.018,-0.0012578
49.13,511.886,0.2220000,2.017,-0.0004483
49.35,514.086,0.2220000,2.017,-0.0001601
49.57,516.287,0.2220000,2.017,0.0000844
49.79,518.487,0.2220000,2.016,-0.0002768
50.01,520.688,0.2220000,2.016,0.0000986
50.23,522.888,0.2220000,2.016,0.0000527
50.45,525.088,0.2220000,2.016,0.0002361
50.67,527.289,0.2220000,2.016,-0.0006999
50.89,529.489,0.2220000,2.015,-0.0002292
51.11,531.69,0.2220000,2.015,-0.0002841
51.33,533.89,0.2220000,2.014,-0.0006603
51.55,536.09,0.2220000,2.013,-0.0003756
51.77,538.291,0.2220000,2.012,-0.0002899
51.99,540.491,0.2210000,2.011,-0.0005993
52.21,542.692,0.2210000,2.009,-0.0011497
52.43,544.892,0.2210000,2.006,-0.0012105
52.65,547.092,0.2210000,2.004,-0.0014657
52.87,549.293,0.2200000,2.001,-0.0014337
53.09,551.493,0.2200000,1.997,-0.0016692
53.31,553.694,0.2190000,1.993,-0.0023609
53.53,555.894,0.2190000,1.988,-0.0026528
53.75,558.094,0.2180000,1.982,-0.0027537
53.97,560.295,0.2180000,1.976,-0.0035027
54.19,562.495,0.2170000,1.969,-0.0033053
54.41,564.695,0.2160000,1.961,-0.0035540
54.63,566.896,0.2150000,1.952,-0.0041725
54.85,569.096,0.2140000,1.943,-0.0043828
55.07,571.297,0.2130000,1.933,-0.0049679
55.29,573.497,0.2120000,1.923,-0.0045344
55.51,575.697,0.2110000,1.912,-0.0053881
55.73,577.898,0.2090000,1.9,-0.0058923
55.95,580.098,0.2080000,1.887,-0.0057606
56.17,582.299,0.2070000,1.875,-0.0057187
56.39,584.499,0.2050000,1.864,-0.0051897
56.61,586.699,0.2040000,1.852,-0.0051382
56.83,588.9,0.2030000,1.842,-0.0046818
56.94,590,0.2020000,1.837,-0.0042090