File: R/rHDPE_App/app/www/Output/TGA/Condensed_Data/Resin3_0_.csv
1.05,30,14.826,100.03,-0.0008632
1.3,32.2004,14.826,100.034,0.0027751
1.54,34.4008,14.827,100.037,0.0019003
1.78,36.6012,14.827,100.04,0.0013757
2.02,38.8016,14.827,100.042,0.0009720
2.25,41.002,14.828,100.045,0.0006766
2.48,43.2024,14.828,100.048,0.0013443
2.71,45.4028,14.829,100.051,0.0015248
2.94,47.6031,14.829,100.053,0.0011360
3.16,49.8035,14.83,100.056,0.0018357
3.39,52.0039,14.83,100.059,0.0010305
3.61,54.2043,14.83,100.061,0.0010267
3.84,56.4047,14.831,100.064,0.0012555
4.06,58.6051,14.831,100.066,0.0011589
4.29,60.8055,14.831,100.069,0.0014795
4.51,63.0059,14.832,100.071,0.0009223
4.73,65.2063,14.832,100.073,0.0009202
4.95,67.4067,14.832,100.075,0.0009653
5.17,69.6071,14.833,100.077,0.0006884
5.39,71.8075,14.833,100.079,0.0009632
5.61,74.0079,14.833,100.08,0.0008256
5.83,76.2083,14.833,100.082,0.0009613
6.05,78.4086,14.834,100.084,0.0006868
6.27,80.609,14.834,100.086,0.0006410
6.49,82.8094,14.834,100.087,0.0006409
6.71,85.0098,14.834,100.088,0.0007777
6.93,87.2102,14.834,100.09,0.0010519
7.15,89.4106,14.835,100.091,0.0003200
7.37,91.611,14.835,100.092,0.0004577
7.59,93.8114,14.835,100.093,0.0006861
7.81,96.0118,14.835,100.094,0.0002286
8.03,98.2122,14.835,100.094,0.0001372
8.25,100.413,14.835,100.095,0.0003204
8.47,102.613,14.835,100.096,0.0003660
8.69,104.813,14.835,100.096,0.0005034
8.91,107.014,14.835,100.096,-0.0002287
9.13,109.214,14.836,100.097,0.0004120
9.35,111.415,14.836,100.097,-0.0001373
9.57,113.615,14.836,100.097,-0.0000000
9.79,115.815,14.836,100.097,0.0001374
10.01,118.016,14.836,100.097,0.0000000
10.23,120.216,14.836,100.097,0.0000000
10.45,122.417,14.836,100.097,-0.0001376
10.67,124.617,14.836,100.097,0.0001375
10.89,126.817,14.836,100.098,0.0004122
11.11,129.018,14.836,100.098,0.0002294
11.33,131.218,14.836,100.099,0.0003211
11.55,133.418,14.836,100.1,0.0004584
11.77,135.619,14.836,100.1,0.0000000
11.99,137.819,14.836,100.1,-0.0002285
12.21,140.02,14.836,100.099,-0.0007293
12.43,142.22,14.835,100.096,-0.0018188
12.65,144.42,14.835,100.092,-0.0020011
12.87,146.621,14.834,100.088,-0.0014155
13.09,148.821,14.834,100.085,-0.0013774
13.31,151.022,14.834,100.083,-0.0009195
13.53,153.222,14.833,100.081,-0.0008276
13.75,155.422,14.833,100.08,-0.0004594
13.97,157.623,14.833,100.078,-0.0009644
14.19,159.823,14.833,100.077,-0.0005041
14.41,162.024,14.832,100.075,-0.0005972
14.63,164.224,14.832,100.073,-0.0005964
14.85,166.424,14.832,100.071,-0.0006419
15.08,168.625,14.832,100.07,-0.0008234
15.3,170.825,14.831,100.068,-0.0009162
15.52,173.026,14.831,100.065,-0.0010543
15.73,175.226,14.831,100.063,-0.0010997
15.95,177.426,14.83,100.061,-0.0010984
16.18,179.627,14.83,100.059,-0.0009168
16.4,181.827,14.83,100.057,-0.0005035
16.62,184.028,14.829,100.055,-0.0009162
16.84,186.228,14.829,100.053,-0.0012379
17.06,188.428,14.829,100.05,-0.0008686
17.28,190.629,14.828,100.048,-0.0013321
17.5,192.829,14.828,100.045,-0.0013262
17.72,195.029,14.828,100.043,-0.0010999
17.94,197.23,14.827,100.04,-0.0009164
18.16,199.43,14.827,100.037,-0.0013266
18.38,201.631,14.826,100.035,-0.0010542
18.6,203.831,14.826,100.032,-0.0011916
18.82,206.031,14.826,100.029,-0.0010544
19.04,208.232,14.825,100.027,-0.0008249
19.26,210.432,14.825,100.024,-0.0012829
19.48,212.633,14.824,100.021,-0.0014657
19.7,214.833,14.824,100.018,-0.0014643
19.92,217.033,14.823,100.015,-0.0012380
20.14,219.234,14.823,100.012,-0.0014211
20.36,221.434,14.822,100.008,-0.0014222
20.58,223.635,14.822,100.005,-0.0015557
20.8,225.835,14.822,100.002,-0.0012372
21.02,228.035,14.821,99.999,-0.0015094
21.24,230.236,14.821,99.996,-0.0014218
21.46,232.436,14.82,99.993,-0.0016036
21.68,234.637,14.82,99.99,-0.0016026
21.9,236.837,14.819,99.986,-0.0015124
22.12,239.037,14.819,99.983,-0.0017407
22.34,241.238,14.818,99.979,-0.0016520
22.56,243.438,14.818,99.976,-0.0017841
22.78,245.639,14.817,99.972,-0.0015103
23,247.839,14.817,99.968,-0.0017869
23.22,250.039,14.816,99.965,-0.0013746
23.44,252.24,14.815,99.961,-0.0017383
23.66,254.44,14.815,99.957,-0.0014650
23.88,256.64,14.814,99.953,-0.0015600
24.1,258.841,14.814,99.949,-0.0019725
24.32,261.041,14.813,99.945,-0.0019220
24.54,263.242,14.812,99.941,-0.0018308
24.76,265.442,14.812,99.937,-0.0021074
24.98,267.642,14.811,99.933,-0.0018339
25.2,269.843,14.811,99.929,-0.0016469
25.42,272.043,14.81,99.925,-0.0020657
25.64,274.244,14.809,99.92,-0.0023352
25.86,276.444,14.809,99.916,-0.0021481
26.08,278.644,14.808,99.911,-0.0023403
26.31,280.845,14.807,99.906,-0.0019255
26.53,283.045,14.807,99.902,-0.0022869
26.74,285.246,14.806,99.897,-0.0020616
26.97,287.446,14.805,99.892,-0.0023840
27.18,289.646,14.804,99.887,-0.0025151
27.41,291.847,14.804,99.882,-0.0021520
27.63,294.047,14.803,99.877,-0.0022018
27.84,296.248,14.802,99.871,-0.0027015
28.07,298.448,14.801,99.866,-0.0024255
28.28,300.648,14.801,99.86,-0.0025655
28.51,302.849,14.8,99.855,-0.0024748
28.73,305.049,14.799,99.849,-0.0026596
28.94,307.25,14.798,99.843,-0.0026566
29.17,309.45,14.797,99.838,-0.0025627
29.39,311.65,14.796,99.832,-0.0027473
29.61,313.851,14.795,99.826,-0.0027915
29.83,316.051,14.795,99.82,-0.0029341
30.05,318.251,14.794,99.814,-0.0030231
30.27,320.452,14.793,99.807,-0.0029734
30.49,322.652,14.792,99.8,-0.0030661
30.71,324.853,14.791,99.794,-0.0033895
30.93,327.053,14.79,99.787,-0.0030566
31.15,329.253,14.789,99.78,-0.0030204
31.37,331.454,14.787,99.772,-0.0034811
31.59,333.654,14.786,99.765,-0.0032420
31.81,335.855,14.785,99.758,-0.0035767
32.03,338.055,14.784,99.75,-0.0035237
32.25,340.255,14.783,99.742,-0.0034392
32.47,342.456,14.782,99.734,-0.0037977
32.69,344.656,14.781,99.726,-0.0040241
32.91,346.857,14.779,99.717,-0.0039872
33.13,349.057,14.778,99.708,-0.0039872
33.35,351.257,14.777,99.699,-0.0044349
33.57,353.458,14.775,99.689,-0.0044471
33.79,355.658,14.774,99.679,-0.0049038
34.01,357.859,14.772,99.669,-0.0046161
34.23,360.059,14.77,99.658,-0.0048903
34.45,362.259,14.769,99.646,-0.0055933
34.67,364.46,14.767,99.634,-0.0056849
34.89,366.66,14.765,99.621,-0.0059448
35.11,368.861,14.763,99.607,-0.0064923
35.33,371.061,14.761,99.592,-0.0071966
35.55,373.261,14.758,99.576,-0.0076508
35.77,375.462,14.756,99.558,-0.0085243
35.99,377.662,14.753,99.539,-0.0091408
36.21,379.862,14.75,99.518,-0.0103442
36.43,382.063,14.746,99.494,-0.0113240
36.65,384.263,14.742,99.467,-0.0124908
36.87,386.464,14.738,99.437,-0.0144389
37.09,388.664,14.733,99.403,-0.0166361
37.31,390.864,14.727,99.365,-0.0182815
37.53,393.065,14.721,99.322,-0.0207494
37.75,395.265,14.713,99.273,-0.0231812
37.97,397.466,14.705,99.218,-0.0260893
38.19,399.666,14.696,99.156,-0.0304375
38.41,401.866,14.686,99.086,-0.0337182
38.63,404.067,14.674,99.007,-0.0385038
38.85,406.267,14.661,98.917,-0.0431556
39.07,408.468,14.646,98.816,-0.0478217
39.29,410.668,14.629,98.703,-0.0545120
39.51,412.868,14.61,98.576,-0.0607664
39.73,415.069,14.589,98.433,-0.0693123
39.95,417.269,14.564,98.264,-0.0851933
40.17,419.47,14.531,98.042,-0.1117890
40.39,421.67,14.491,97.774,-0.1338700
40.61,423.87,14.445,97.462,-0.1468120
40.83,426.071,14.393,97.11,-0.1759600
41.05,428.271,14.332,96.699,-0.2074160
41.27,430.472,14.253,96.167,-0.2788520
41.49,432.672,14.154,95.499,-0.3356480
41.71,434.872,14.043,94.747,-0.3661990
41.93,437.073,13.915,93.886,-0.4177520
42.15,439.273,13.767,92.888,-0.4947250
42.37,441.473,13.591,91.702,-0.5904670
42.59,443.674,13.382,90.291,-0.6944850
42.81,445.874,13.14,88.655,-0.8329670
43.03,448.075,12.854,86.724,-0.9680710
43.25,450.275,12.515,84.441,-1.11928
43.47,452.475,12.102,81.655,-1.41128
43.69,454.676,11.612,78.346,-1.65541
43.91,456.876,11.029,74.411,-1.91277
44.13,459.077,10.332,69.711,-2.29514
44.35,461.277,9.532,64.315,-2.70454
44.57,463.477,8.621,58.164,-2.9761
44.79,465.678,7.605,51.309,-3.25875
45.01,467.878,6.479,43.716,-3.46578
45.23,470.079,5.296,35.735,-3.69607
45.45,472.279,4.09,27.598,-3.69346
45.67,474.479,2.923,19.719,-3.42607
45.89,476.68,1.901,12.824,-2.85888
46.11,478.88,1.088,7.343,-2.03674
46.33,481.081,0.5770000,3.893,-1.10584
46.54,483.281,0.3480000,2.349,-0.3646260
46.76,485.481,0.2910000,1.967,-0.0487470
46.99,487.682,0.2800000,1.891,-0.0256412
47.21,489.882,0.2750000,1.855,-0.0095249
47.43,492.083,0.2730000,1.842,-0.0035547
47.65,494.283,0.2720000,1.838,-0.0011937
47.87,496.483,0.2720000,1.836,-0.0004317
48.09,498.684,0.2720000,1.836,-0.0004431
48.31,500.884,0.2720000,1.835,0.0000108
48.53,503.084,0.2720000,1.835,-0.0001944
48.75,505.285,0.2720000,1.835,-0.0001174
48.97,507.485,0.2720000,1.835,-0.0000351
49.19,509.686,0.2720000,1.835,-0.0001552
49.41,511.886,0.2720000,1.835,0.0001497
49.63,514.086,0.2720000,1.835,0.0001345
49.85,516.287,0.2720000,1.836,0.0000878
50.07,518.487,0.2720000,1.836,0.0001303
50.29,520.688,0.2720000,1.836,-0.0000759
50.51,522.888,0.2720000,1.835,-0.0001372
50.73,525.088,0.2720000,1.836,-0.0001078
50.94,527.289,0.2720000,1.835,-0.0001332
51.16,529.489,0.2720000,1.835,0.0001186
51.39,531.69,0.2720000,1.835,-0.0000329
51.61,533.89,0.2720000,1.835,-0.0001158
51.83,536.09,0.2720000,1.835,0.0000895
52.05,538.291,0.2720000,1.835,0.0001574
52.27,540.491,0.2720000,1.835,-0.0000715
52.49,542.692,0.2720000,1.835,-0.0001692
52.71,544.892,0.2720000,1.835,-0.0000494
52.93,547.092,0.2720000,1.835,0.0001494
53.14,549.293,0.2720000,1.834,-0.0001877
53.36,551.493,0.2720000,1.834,-0.0001645
53.59,553.694,0.2720000,1.833,-0.0003620
53.81,555.894,0.2720000,1.833,-0.0003074
54.03,558.094,0.2710000,1.832,-0.0002428
54.24,560.295,0.2710000,1.831,-0.0002112
54.46,562.495,0.2710000,1.83,-0.0006546
54.69,564.695,0.2710000,1.829,-0.0003451
54.91,566.896,0.2710000,1.827,-0.0006506
55.13,569.096,0.2710000,1.826,-0.0004817
55.34,571.297,0.2710000,1.825,-0.0003167
55.56,573.497,0.2700000,1.825,-0.0004719
55.78,575.697,0.2700000,1.824,-0.0002933
56,577.898,0.2700000,1.823,-0.0002633
56.22,580.098,0.2700000,1.823,-0.0001592
56.44,582.299,0.2700000,1.822,-0.0003305
56.66,584.499,0.2700000,1.821,-0.0002976
56.88,586.699,0.2700000,1.821,-0.0000903
57.1,588.9,0.2700000,1.82,-0.0002667
57.21,590,0.2700000,1.82,0.0000172