File: R/rHDPE_App/app/www/Output/TGA/Condensed_Data/Resin18_0_.csv
0.0000000,30,16.11,100,-0.0303137
0.5500000,32.2004,16.111,100.005,0.0067830
0.8800000,34.4008,16.113,100.018,0.0056013
1.14,36.6012,16.114,100.024,0.0006915
1.39,38.8016,16.115,100.028,0.0029179
1.63,41.002,16.115,100.032,-0.0000499
1.87,43.2024,16.116,100.035,0.0023553
2.11,45.4028,16.116,100.038,0.0020861
2.34,47.6031,16.117,100.041,0.0021626
2.57,49.8035,16.117,100.044,0.0014326
2.8,52.0039,16.118,100.046,0.0011405
3.03,54.2043,16.118,100.049,0.0015597
3.25,56.4047,16.119,100.052,0.0011277
3.48,58.6051,16.119,100.054,0.0008886
3.7,60.8055,16.119,100.056,0.0009789
3.93,63.0059,16.12,100.059,0.0008826
4.15,65.2063,16.12,100.061,0.0010189
4.37,67.4067,16.12,100.063,0.0009238
4.59,69.6071,16.121,100.065,0.0007830
4.81,71.8075,16.121,100.067,0.0010587
5.04,74.0079,16.121,100.068,0.0006895
5.26,76.2083,16.122,100.07,0.0004591
5.48,78.4086,16.122,100.071,0.0005964
5.7,80.609,16.122,100.073,0.0010085
5.92,82.8094,16.122,100.074,0.0005958
6.14,85.0098,16.122,100.075,0.0009161
6.36,87.2102,16.123,100.077,0.0005037
6.58,89.4106,16.123,100.078,0.0003663
6.8,91.611,16.123,100.078,0.0001832
7.02,93.8114,16.123,100.079,0.0000915
7.24,96.0118,16.123,100.08,0.0003203
7.46,98.2122,16.123,100.081,0.0005035
7.68,100.413,16.123,100.081,0.0007321
7.9,102.613,16.123,100.082,0.0002746
8.12,104.813,16.124,100.082,0.0000000
8.34,107.014,16.124,100.082,-0.0001831
8.56,109.214,16.123,100.082,-0.0000458
8.78,111.415,16.124,100.082,-0.0001831
9,113.615,16.123,100.082,0.0000000
9.22,115.815,16.124,100.082,0.0002290
9.44,118.016,16.123,100.082,-0.0002749
9.66,120.216,16.123,100.082,-0.0001834
9.88,122.417,16.123,100.082,0.0000917
10.1,124.617,16.123,100.082,0.0005959
10.32,126.817,16.123,100.082,0.0001834
10.54,129.018,16.123,100.082,0.0003674
10.76,131.218,16.124,100.082,0.0000459
10.98,133.418,16.123,100.082,-0.0002290
11.2,135.619,16.123,100.081,-0.0002743
11.42,137.819,16.123,100.08,-0.0005477
11.64,140.02,16.123,100.078,-0.0006386
11.86,142.22,16.122,100.075,-0.0020015
12.08,144.42,16.122,100.071,-0.0019501
12.3,146.621,16.121,100.066,-0.0020479
12.52,148.821,16.12,100.062,-0.0020618
12.74,151.022,16.12,100.058,-0.0016107
12.96,153.222,16.119,100.055,-0.0014286
13.18,155.422,16.119,100.052,-0.0012888
13.4,157.623,16.118,100.05,-0.0012419
13.62,159.823,16.118,100.047,-0.0012864
13.84,162.024,16.117,100.045,-0.0010099
14.06,164.224,16.117,100.042,-0.0011007
14.28,166.424,16.117,100.039,-0.0010994
14.5,168.625,16.116,100.036,-0.0013278
14.72,170.825,16.116,100.033,-0.0017870
14.94,173.026,16.115,100.03,-0.0009166
15.16,175.226,16.115,100.026,-0.0012829
15.38,177.426,16.114,100.023,-0.0010999
15.6,179.627,16.113,100.02,-0.0014207
15.83,181.827,16.113,100.016,-0.0015118
16.05,184.028,16.112,100.013,-0.0018781
16.27,186.228,16.112,100.009,-0.0016492
16.48,188.428,16.111,100.006,-0.0013739
16.7,190.629,16.111,100.002,-0.0017411
16.93,192.829,16.11,99.998,-0.0019698
17.14,195.029,16.109,99.994,-0.0021540
17.37,197.23,16.109,99.99,-0.0018785
17.59,199.43,16.108,99.985,-0.0017865
17.81,201.631,16.107,99.981,-0.0018782
18.03,203.831,16.107,99.977,-0.0017865
18.25,206.031,16.106,99.973,-0.0021540
18.47,208.232,16.105,99.968,-0.0016493
18.69,210.432,16.104,99.964,-0.0022450
18.91,212.633,16.104,99.959,-0.0024736
19.13,214.833,16.103,99.954,-0.0019683
19.35,217.033,16.102,99.95,-0.0021992
19.57,219.234,16.101,99.945,-0.0019254
19.79,221.434,16.101,99.94,-0.0026142
20.01,223.635,16.1,99.935,-0.0022931
20.23,225.835,16.099,99.93,-0.0020623
20.45,228.035,16.098,99.925,-0.0024743
20.67,230.236,16.097,99.921,-0.0018786
20.89,232.436,16.097,99.916,-0.0025202
21.11,234.637,16.096,99.911,-0.0027941
21.33,236.837,16.095,99.905,-0.0021540
21.55,239.037,16.094,99.9,-0.0024736
21.77,241.238,16.093,99.895,-0.0020158
21.99,243.438,16.092,99.889,-0.0024283
22.21,245.639,16.092,99.884,-0.0026106
22.43,247.839,16.091,99.877,-0.0016952
22.65,250.039,16.09,99.872,-0.0022457
22.87,252.24,16.089,99.866,-0.0028859
23.09,254.44,16.088,99.86,-0.0027047
23.31,256.64,16.087,99.854,-0.0028398
23.53,258.841,16.086,99.847,-0.0032533
23.75,261.041,16.085,99.841,-0.0028867
23.97,263.242,16.084,99.834,-0.0033425
24.19,265.442,16.082,99.827,-0.0034341
24.41,267.642,16.081,99.82,-0.0029320
24.63,269.843,16.08,99.813,-0.0035734
24.85,272.043,16.079,99.806,-0.0032985
25.07,274.244,16.078,99.799,-0.0031136
25.29,276.444,16.077,99.792,-0.0036158
25.51,278.644,16.076,99.784,-0.0032539
25.73,280.845,16.074,99.777,-0.0034366
25.96,283.045,16.073,99.769,-0.0036630
26.18,285.246,16.072,99.761,-0.0036151
26.39,287.446,16.071,99.753,-0.0037525
26.62,289.646,16.069,99.745,-0.0041683
26.83,291.847,16.068,99.736,-0.0038462
27.06,294.047,16.066,99.727,-0.0038941
27.28,296.248,16.065,99.718,-0.0045496
27.49,298.448,16.064,99.71,-0.0045846
27.72,300.648,16.062,99.7,-0.0046178
27.93,302.849,16.06,99.69,-0.0045288
28.16,305.049,16.059,99.68,-0.0048059
28.38,307.25,16.057,99.669,-0.0045330
28.59,309.45,16.055,99.658,-0.0053085
28.82,311.65,16.053,99.647,-0.0055423
29.04,313.851,16.052,99.635,-0.0054915
29.26,316.051,16.049,99.622,-0.0058150
29.48,318.251,16.047,99.609,-0.0060440
29.7,320.452,16.045,99.596,-0.0066368
29.92,322.652,16.043,99.582,-0.0064560
30.14,324.853,16.041,99.567,-0.0071009
30.36,327.053,16.038,99.551,-0.0072384
30.58,329.253,16.035,99.534,-0.0072828
30.8,331.454,16.032,99.517,-0.0082921
31.02,333.654,16.029,99.498,-0.0082477
31.24,335.855,16.026,99.479,-0.0087421
31.46,338.055,16.023,99.458,-0.0094322
31.68,340.255,16.019,99.436,-0.0101190
31.9,342.456,16.016,99.413,-0.0115342
32.12,344.656,16.012,99.388,-0.0115299
32.34,346.857,16.008,99.362,-0.0124017
32.56,349.057,16.003,99.334,-0.0136497
32.78,351.257,15.998,99.304,-0.0139271
33,353.458,15.993,99.272,-0.0151044
33.22,355.658,15.987,99.237,-0.0163432
33.44,357.859,15.981,99.199,-0.0171152
33.66,360.059,15.975,99.162,-0.0165293
33.88,362.259,15.97,99.127,-0.0151640
34.1,364.46,15.965,99.095,-0.0139601
34.32,366.66,15.96,99.065,-0.0132784
34.54,368.861,15.955,99.036,-0.0129626
34.76,371.061,15.95,99.008,-0.0130107
34.98,373.261,15.946,98.98,-0.0131362
35.2,375.462,15.941,98.951,-0.0133700
35.42,377.662,15.937,98.922,-0.0135864
35.64,379.862,15.932,98.892,-0.0138533
35.86,382.063,15.927,98.862,-0.0140690
36.08,384.263,15.922,98.831,-0.0144504
36.3,386.464,15.917,98.798,-0.0151931
36.52,388.664,15.911,98.764,-0.0164835
36.74,390.864,15.905,98.727,-0.0178964
36.96,393.065,15.899,98.686,-0.0191287
37.18,395.265,15.892,98.643,-0.0203755
37.4,397.466,15.884,98.598,-0.0215462
37.62,399.666,15.877,98.549,-0.0236264
37.84,401.866,15.868,98.496,-0.0249542
38.06,404.067,15.859,98.439,-0.0273151
38.28,406.267,15.849,98.377,-0.0291050
38.5,408.468,15.838,98.309,-0.0335315
38.72,410.668,15.826,98.233,-0.0365843
38.94,412.868,15.812,98.148,-0.0410414
39.16,415.069,15.797,98.053,-0.0462658
39.38,417.269,15.779,97.945,-0.0523980
39.6,419.47,15.759,97.821,-0.0606351
39.82,421.67,15.736,97.675,-0.0766314
40.04,423.87,15.704,97.475,-0.1040250
40.26,426.071,15.663,97.222,-0.1239720
40.48,428.271,15.615,96.927,-0.1401490
40.7,430.472,15.552,96.533,-0.1980490
40.92,432.672,15.472,96.038,-0.2421200
41.14,434.872,15.375,95.438,-0.3063640
41.36,437.073,15.26,94.721,-0.3557010
41.58,439.273,15.122,93.864,-0.4409150
41.8,441.473,14.951,92.804,-0.5221900
42.02,443.674,14.746,91.534,-0.6125030
42.24,445.874,14.502,90.014,-0.8002510
42.46,448.075,14.215,88.237,-0.8564010
42.68,450.275,13.876,86.133,-1.03943
42.9,452.475,13.462,83.564,-1.24789
43.12,454.676,12.992,80.646,-1.46177
43.34,456.876,12.439,77.211,-1.58405
43.56,459.077,11.817,73.349,-1.88309
43.78,461.277,11.1,68.899,-2.31009
44,463.477,10.294,63.897,-2.36443
44.22,465.678,9.367,58.142,-2.7177
44.44,467.878,8.352,51.843,-3.08262
44.66,470.079,7.241,44.944,-3.27322
44.88,472.279,6.074,37.7,-3.28206
45.1,474.479,4.838,30.032,-3.2799
45.32,476.68,3.689,22.901,-3.14208
45.54,478.88,2.637,16.37,-2.77342
45.76,481.081,1.736,10.774,-2.20805
45.98,483.281,1.06,6.58,-1.56164
46.19,485.481,0.6350000,3.94,-0.8967720
46.41,487.682,0.4110000,2.551,-0.4217100
46.63,489.882,0.3130000,1.945,-0.1560870
46.85,492.083,0.2850000,1.769,-0.0394877
47.08,494.283,0.2740000,1.699,-0.0216180
47.3,496.483,0.2690000,1.669,-0.0079614
47.52,498.684,0.2670000,1.658,-0.0026733
47.74,500.884,0.2660000,1.654,-0.0009043
47.96,503.084,0.2660000,1.653,-0.0003673
48.18,505.285,0.2660000,1.652,-0.0002119
48.4,507.485,0.2660000,1.652,-0.0001570
48.62,509.686,0.2660000,1.651,-0.0000107
48.84,511.886,0.2660000,1.651,-0.0002136
49.06,514.086,0.2660000,1.65,-0.0001115
49.28,516.287,0.2660000,1.65,-0.0004454
49.49,518.487,0.2660000,1.65,-0.0003485
49.71,520.688,0.2660000,1.649,-0.0002367
49.94,522.888,0.2660000,1.648,0.0000036
50.16,525.088,0.2660000,1.648,-0.0000400
50.37,527.289,0.2650000,1.648,-0.0005607
50.59,529.489,0.2650000,1.647,-0.0001058
50.81,531.69,0.2650000,1.646,-0.0002030
51.03,533.89,0.2650000,1.645,-0.0005044
51.26,536.09,0.2650000,1.644,-0.0004146
51.48,538.291,0.2650000,1.643,-0.0006639
51.69,540.491,0.2650000,1.642,-0.0005012
51.91,542.692,0.2640000,1.641,-0.0006255
52.14,544.892,0.2640000,1.64,-0.0007854
52.35,547.092,0.2640000,1.638,-0.0005204
52.57,549.293,0.2640000,1.637,-0.0002844
52.79,551.493,0.2640000,1.636,-0.0004849
53.01,553.694,0.2630000,1.634,-0.0006691
53.23,555.894,0.2630000,1.633,-0.0009395
53.45,558.094,0.2630000,1.631,-0.0014636
53.67,560.295,0.2630000,1.63,-0.0007132
53.89,562.495,0.2620000,1.628,-0.0006053
54.11,564.695,0.2620000,1.626,-0.0008078
54.33,566.896,0.2620000,1.625,-0.0007782
54.55,569.096,0.2610000,1.623,-0.0008050
54.77,571.297,0.2610000,1.621,-0.0011138
54.99,573.497,0.2610000,1.618,-0.0011938
55.21,575.697,0.2600000,1.615,-0.0012620
55.43,577.898,0.2600000,1.612,-0.0015381
55.65,580.098,0.2590000,1.609,-0.0019045
55.87,582.299,0.2580000,1.605,-0.0015252
56.09,584.499,0.2580000,1.6,-0.0022641
56.31,586.699,0.2570000,1.595,-0.0023270
56.53,588.9,0.2560000,1.59,-0.0022593
56.64,590,0.2560000,1.587,-0.0021318