File: R/rHDPE_App/app/www/Output/TGA/Condensed_Data/Resin2_1_.csv
0.7200000,30,17.619,100.015,0.0037697
1,32.2004,17.62,100.023,0.0044916
1.26,34.4008,17.621,100.028,0.0014518
1.5,36.6012,17.622,100.032,0.0021648
1.74,38.8016,17.622,100.035,0.0011356
1.98,41.002,17.623,100.038,0.0006333
2.21,43.2024,17.623,100.04,0.0015463
2.44,45.4028,17.624,100.043,0.0016301
2.67,47.6031,17.624,100.046,0.0008570
2.9,49.8035,17.625,100.049,0.0011833
3.13,52.0039,17.625,100.051,0.0006119
3.35,54.2043,17.626,100.054,0.0015922
3.58,56.4047,17.626,100.056,0.0011655
3.8,58.6051,17.627,100.059,0.0012084
4.03,60.8055,17.627,100.061,0.0006030
4.25,63.0059,17.627,100.063,0.0010171
4.47,65.2063,17.628,100.066,0.0010146
4.69,67.4067,17.628,100.068,0.0012437
4.91,69.6071,17.629,100.07,0.0011038
5.13,71.8075,17.629,100.072,0.0007812
5.35,74.0079,17.629,100.073,0.0007345
5.57,76.2083,17.63,100.075,0.0007799
5.8,78.4086,17.63,100.077,0.0007793
6.01,80.609,17.63,100.078,0.0008246
6.24,82.8094,17.63,100.08,0.0008242
6.45,85.0098,17.631,100.081,0.0001832
6.68,87.2102,17.631,100.082,0.0006869
6.9,89.4106,17.631,100.083,0.0002290
7.12,91.611,17.631,100.084,0.0004123
7.34,93.8114,17.631,100.084,0.0002289
7.56,96.0118,17.631,100.085,0.0003664
7.78,98.2122,17.631,100.085,0.0005031
8,100.413,17.631,100.085,0.0004119
8.22,102.613,17.631,100.085,0.0002288
8.44,104.813,17.631,100.086,0.0000916
8.66,107.014,17.631,100.086,-0.0000458
8.88,109.214,17.631,100.086,0.0000000
9.1,111.415,17.631,100.085,-0.0000915
9.32,113.615,17.631,100.085,-0.0002290
9.54,115.815,17.631,100.085,0.0000916
9.76,118.016,17.631,100.084,-0.0000458
9.98,120.216,17.631,100.084,0.0000000
10.2,122.417,17.631,100.084,0.0000000
10.42,124.617,17.631,100.083,-0.0001375
10.64,126.817,17.631,100.083,-0.0001376
10.86,129.018,17.631,100.083,-0.0001377
11.08,131.218,17.631,100.082,0.0005502
11.3,133.418,17.631,100.082,-0.0002754
11.52,135.619,17.631,100.082,0.0000000
11.74,137.819,17.631,100.082,-0.0004126
11.96,140.02,17.631,100.081,-0.0006400
12.18,142.22,17.63,100.079,-0.0007746
12.4,144.42,17.63,100.077,-0.0015869
12.62,146.621,17.629,100.073,-0.0021622
12.83,148.821,17.628,100.068,-0.0024858
13.05,151.022,17.627,100.063,-0.0019171
13.27,153.222,17.627,100.058,-0.0019332
13.49,155.422,17.626,100.054,-0.0019416
13.72,157.623,17.625,100.05,-0.0016610
13.94,159.823,17.624,100.046,-0.0019360
14.16,162.024,17.624,100.042,-0.0021619
14.38,164.224,17.623,100.038,-0.0017463
14.6,166.424,17.622,100.034,-0.0021573
14.82,168.625,17.622,100.03,-0.0019734
15.04,170.825,17.621,100.025,-0.0022014
15.26,173.026,17.62,100.021,-0.0018318
15.48,175.226,17.619,100.016,-0.0021098
15.7,177.426,17.618,100.011,-0.0020174
15.92,179.627,17.617,100.006,-0.0021982
16.14,181.827,17.616,100.001,-0.0025197
16.36,184.028,17.615,99.995,-0.0021540
16.58,186.228,17.615,99.99,-0.0022446
16.8,188.428,17.614,99.985,-0.0027943
17.02,190.629,17.613,99.979,-0.0026142
17.24,192.829,17.611,99.973,-0.0027948
17.46,195.029,17.61,99.967,-0.0026550
17.68,197.23,17.609,99.96,-0.0028388
17.91,199.43,17.608,99.954,-0.0024267
18.13,201.631,17.607,99.948,-0.0026564
18.34,203.831,17.606,99.941,-0.0030206
18.57,206.031,17.605,99.934,-0.0027897
18.78,208.232,17.604,99.928,-0.0029309
19.01,210.432,17.602,99.921,-0.0030726
19.23,212.633,17.601,99.914,-0.0031643
19.44,214.833,17.6,99.907,-0.0030684
19.67,217.033,17.599,99.9,-0.0033914
19.89,219.234,17.597,99.892,-0.0031613
20.11,221.434,17.596,99.885,-0.0030754
20.33,223.635,17.595,99.878,-0.0034398
20.55,225.835,17.593,99.87,-0.0034363
20.77,228.035,17.592,99.863,-0.0035747
20.99,230.236,17.591,99.855,-0.0035763
21.21,232.436,17.589,99.848,-0.0035724
21.43,234.637,17.588,99.84,-0.0034372
21.65,236.837,17.587,99.832,-0.0032539
21.87,239.037,17.585,99.825,-0.0035256
22.09,241.238,17.584,99.817,-0.0033456
22.31,243.438,17.583,99.809,-0.0037115
22.53,245.639,17.581,99.801,-0.0037088
22.75,247.839,17.58,99.793,-0.0035704
22.97,250.039,17.578,99.785,-0.0035757
23.19,252.24,17.577,99.777,-0.0037580
23.41,254.44,17.575,99.768,-0.0039366
23.63,256.64,17.574,99.76,-0.0038941
23.85,258.841,17.573,99.752,-0.0037560
24.07,261.041,17.571,99.743,-0.0038919
24.29,263.242,17.57,99.734,-0.0038483
24.51,265.442,17.568,99.726,-0.0039421
24.73,267.642,17.566,99.717,-0.0038483
24.95,269.843,17.565,99.708,-0.0041232
25.17,272.043,17.563,99.699,-0.0042101
25.39,274.244,17.562,99.69,-0.0041689
25.61,276.444,17.56,99.68,-0.0041690
25.83,278.644,17.558,99.671,-0.0043080
26.05,280.845,17.557,99.662,-0.0044430
26.27,283.045,17.555,99.652,-0.0044872
26.49,285.246,17.553,99.642,-0.0046271
26.71,287.446,17.552,99.632,-0.0042163
26.93,289.646,17.55,99.622,-0.0044896
27.15,291.847,17.548,99.612,-0.0044414
27.37,294.047,17.546,99.603,-0.0042582
27.59,296.248,17.545,99.593,-0.0046703
27.81,298.448,17.543,99.583,-0.0045330
28.03,300.648,17.541,99.573,-0.0050843
28.25,302.849,17.539,99.562,-0.0049479
28.47,305.049,17.537,99.552,-0.0046304
28.69,307.25,17.535,99.541,-0.0053670
28.91,309.45,17.533,99.53,-0.0052579
29.13,311.65,17.531,99.519,-0.0051253
29.36,313.851,17.53,99.508,-0.0049946
29.58,316.051,17.528,99.497,-0.0050852
29.79,318.251,17.526,99.486,-0.0050824
30.02,320.452,17.524,99.475,-0.0047619
30.23,322.652,17.522,99.464,-0.0048993
30.46,324.853,17.52,99.453,-0.0051769
30.68,327.053,17.518,99.442,-0.0046730
30.89,329.253,17.516,99.431,-0.0054487
31.12,331.454,17.514,99.42,-0.0054000
31.33,333.654,17.512,99.408,-0.0056319
31.56,335.855,17.51,99.396,-0.0054029
31.78,338.055,17.508,99.384,-0.0050824
31.99,340.255,17.506,99.372,-0.0052226
32.22,342.456,17.503,99.359,-0.0054466
32.43,344.656,17.501,99.347,-0.0056755
32.66,346.857,17.499,99.335,-0.0056777
32.88,349.057,17.497,99.322,-0.0060383
33.09,351.257,17.495,99.309,-0.0057713
33.32,353.458,17.492,99.297,-0.0058150
33.53,355.658,17.49,99.284,-0.0062237
33.76,357.859,17.488,99.27,-0.0062786
33.98,360.059,17.485,99.256,-0.0062706
34.2,362.259,17.483,99.242,-0.0059470
34.42,364.46,17.48,99.228,-0.0062809
34.64,366.66,17.478,99.213,-0.0064959
34.86,368.861,17.475,99.198,-0.0069635
35.08,371.061,17.472,99.183,-0.0074676
35.3,373.261,17.469,99.166,-0.0077868
35.52,375.462,17.466,99.148,-0.0083838
35.74,377.662,17.463,99.129,-0.0094357
35.96,379.862,17.459,99.108,-0.0100788
36.18,382.063,17.455,99.085,-0.0109830
36.4,384.263,17.451,99.06,-0.0125981
36.62,386.464,17.446,99.033,-0.0132347
36.84,388.664,17.44,99.002,-0.0150769
37.06,390.864,17.434,98.967,-0.0171403
37.28,393.065,17.427,98.928,-0.0182334
37.5,395.265,17.42,98.885,-0.0202529
37.72,397.466,17.412,98.839,-0.0219699
37.94,399.666,17.403,98.789,-0.0232601
38.16,401.866,17.394,98.735,-0.0251970
38.38,404.067,17.383,98.676,-0.0277473
38.6,406.267,17.372,98.611,-0.0308952
38.82,408.468,17.359,98.539,-0.0343281
39.04,410.668,17.345,98.459,-0.0386692
39.26,412.868,17.329,98.369,-0.0431997
39.48,415.069,17.311,98.267,-0.0492314
39.7,417.269,17.291,98.153,-0.0550824
39.92,419.47,17.268,98.026,-0.0612879
40.14,421.67,17.241,97.869,-0.0855576
40.36,423.87,17.205,97.666,-0.1037630
40.58,426.071,17.163,97.43,-0.1184790
40.8,428.271,17.116,97.158,-0.1334550
41.02,430.472,17.061,96.851,-0.1419490
41.24,432.672,17.001,96.509,-0.1816870
41.46,434.872,16.93,96.103,-0.2119030
41.68,437.073,16.837,95.578,-0.2554150
41.9,439.273,16.736,95.005,-0.2832260
42.12,441.473,16.607,94.271,-0.3945550
42.34,443.674,16.455,93.409,-0.3995880
42.56,445.874,16.291,92.476,-0.4483060
42.78,448.075,16.094,91.359,-0.4983030
43,450.275,15.883,90.16,-0.6070380
43.22,452.475,15.609,88.606,-0.7239450
43.44,454.676,15.307,86.893,-0.9185690
43.66,456.876,14.929,84.744,-0.9639870
43.88,459.077,14.496,82.285,-1.28332
44.1,461.277,13.986,79.394,-1.46963
44.32,463.477,13.397,76.051,-1.63065
44.54,465.678,12.706,72.128,-2.10999
44.76,467.878,11.911,67.614,-2.17211
44.98,470.079,10.999,62.437,-2.62292
45.2,472.279,9.949,56.478,-2.85778
45.42,474.479,8.764,49.748,-3.18532
45.64,476.68,7.471,42.41,-3.49259
45.86,478.88,6.063,34.416,-3.71572
46.08,481.081,4.593,26.074,-2.98797
46.3,483.281,3.353,19.032,-3.28022
46.51,485.481,2.162,12.271,-2.81664
46.73,487.682,1.27,7.21,-1.887
46.95,489.882,0.6860000,3.896,-1.10423
47.17,492.083,0.4050000,2.302,-0.3796890
47.39,494.283,0.3250000,1.844,-0.0709427
47.61,496.483,0.3110000,1.766,-0.0248134
47.83,498.684,0.3050000,1.729,-0.0097112
48.06,500.884,0.3020000,1.716,-0.0036932
48.28,503.084,0.3010000,1.711,-0.0012916
48.5,505.285,0.3010000,1.709,-0.0005949
48.72,507.485,0.3010000,1.708,-0.0001568
48.94,509.686,0.3010000,1.707,-0.0002145
49.16,511.886,0.3010000,1.707,-0.0002646
49.38,514.086,0.3010000,1.706,-0.0005203
49.6,516.287,0.3010000,1.706,-0.0003439
49.82,518.487,0.3010000,1.706,0.0000500
50.04,520.688,0.3000000,1.706,-0.0000814
50.26,522.888,0.3000000,1.705,0.0001676
50.48,525.088,0.3000000,1.706,-0.0001707
50.69,527.289,0.3000000,1.705,-0.0000035
50.91,529.489,0.3000000,1.705,-0.0002108
51.14,531.69,0.3000000,1.705,-0.0004756
51.36,533.89,0.3000000,1.705,0.0000721
51.58,536.09,0.3000000,1.704,-0.0000493
51.79,538.291,0.3000000,1.704,-0.0002758
52.01,540.491,0.3000000,1.704,-0.0003231
52.24,542.692,0.3000000,1.703,-0.0003754
52.46,544.892,0.3000000,1.703,-0.0000150
52.68,547.092,0.3000000,1.703,-0.0002101
52.89,549.293,0.3000000,1.702,-0.0000029
53.11,551.493,0.3000000,1.702,-0.0003481
53.34,553.694,0.3000000,1.701,-0.0000379
53.55,555.894,0.3000000,1.701,-0.0002193
53.77,558.094,0.3000000,1.7,-0.0003554
53.99,560.295,0.2990000,1.7,-0.0004988
54.21,562.495,0.2990000,1.699,-0.0003348
54.43,564.695,0.2990000,1.699,-0.0001337
54.65,566.896,0.2990000,1.698,-0.0001530
54.87,569.096,0.2990000,1.698,-0.0002502
55.09,571.297,0.2990000,1.697,-0.0000122
55.31,573.497,0.2990000,1.697,-0.0000586
55.53,575.697,0.2990000,1.697,-0.0001107
55.75,577.898,0.2990000,1.696,-0.0003559
55.97,580.098,0.2990000,1.695,-0.0004135
56.19,582.299,0.2980000,1.694,-0.0003838
56.41,584.499,0.2980000,1.694,-0.0003799
56.63,586.699,0.2980000,1.693,-0.0005555
56.85,588.9,0.2980000,1.692,-0.0004846
56.96,590,0.2980000,1.691,-0.0005688