File: R/rHDPE_App/app/www/Output/TGA/Condensed_Data/Resin4_0_.csv
1.07,30,13.66,100.03,0.0019286
1.32,32.2004,13.66,100.033,0.0027145
1.57,34.4008,13.661,100.037,0.0010976
1.8,36.6012,13.661,100.04,0.0023557
2.04,38.8016,13.662,100.043,0.0009235
2.27,41.002,13.662,100.046,0.0008691
2.5,43.2024,13.663,100.049,0.0018228
2.73,45.4028,13.663,100.052,0.0022858
2.96,47.6031,13.663,100.055,0.0011823
3.19,49.8035,13.664,100.058,0.0015534
3.41,52.0039,13.664,100.061,0.0010301
3.64,54.2043,13.665,100.064,0.0015850
3.86,56.4047,13.665,100.066,0.0013475
4.08,58.6051,13.665,100.069,0.0008333
4.3,60.8055,13.666,100.071,0.0010172
4.53,63.0059,13.666,100.074,0.0009220
4.75,65.2063,13.666,100.076,0.0011512
4.97,67.4067,13.667,100.078,0.0011032
5.19,69.6071,13.667,100.08,0.0009637
5.41,71.8075,13.667,100.082,0.0006425
5.63,74.0079,13.667,100.083,0.0009623
5.85,76.2083,13.668,100.085,0.0005957
6.07,78.4086,13.668,100.086,0.0008698
6.29,80.609,13.668,100.088,0.0006860
6.51,82.8094,13.668,100.089,0.0005030
6.73,85.0098,13.668,100.09,0.0007331
6.95,87.2102,13.668,100.092,0.0004116
7.17,89.4106,13.669,100.093,0.0003656
7.39,91.611,13.669,100.094,0.0003200
7.61,93.8114,13.669,100.094,0.0001831
7.83,96.0118,13.669,100.095,-0.0000000
8.05,98.2122,13.669,100.096,0.0005495
8.27,100.413,13.669,100.096,0.0001373
8.49,102.613,13.669,100.097,0.0003203
8.71,104.813,13.669,100.097,0.0000000
8.93,107.014,13.669,100.097,0.0000000
9.15,109.214,13.669,100.097,-0.0000000
9.37,111.415,13.669,100.097,-0.0001374
9.59,113.615,13.669,100.097,-0.0002748
9.81,115.815,13.669,100.097,0.0000457
10.03,118.016,13.669,100.096,-0.0001372
10.25,120.216,13.669,100.096,-0.0004581
10.47,122.417,13.669,100.096,0.0001375
10.69,124.617,13.669,100.096,0.0000458
10.91,126.817,13.669,100.096,0.0000000
11.13,129.018,13.669,100.095,-0.0003671
11.35,131.218,13.669,100.096,0.0003668
11.57,133.418,13.669,100.097,0.0005051
11.79,135.619,13.669,100.098,0.0005499
12.01,137.819,13.669,100.099,0.0002291
12.23,140.02,13.669,100.1,-0.0001372
12.45,142.22,13.669,100.099,-0.0000458
12.67,144.42,13.669,100.098,-0.0007760
12.89,146.621,13.669,100.096,-0.0013658
13.11,148.821,13.668,100.091,-0.0023220
13.33,151.022,13.668,100.086,-0.0021864
13.55,153.222,13.667,100.082,-0.0013736
13.77,155.422,13.667,100.079,-0.0010087
13.99,157.623,13.666,100.077,-0.0011982
14.21,159.823,13.666,100.075,-0.0010567
14.43,162.024,13.666,100.073,-0.0003210
14.65,164.224,13.666,100.072,-0.0005509
14.87,166.424,13.665,100.07,-0.0006886
15.09,168.625,13.665,100.068,-0.0011004
15.32,170.825,13.665,100.066,-0.0008255
15.53,173.026,13.665,100.064,-0.0009628
15.75,175.226,13.664,100.062,-0.0010541
15.98,177.426,13.664,100.06,-0.0010079
16.2,179.627,13.664,100.058,-0.0011913
16.42,181.827,13.663,100.055,-0.0010538
16.63,184.028,13.663,100.053,-0.0010959
16.85,186.228,13.663,100.051,-0.0016055
17.08,188.428,13.662,100.048,-0.0016029
17.3,190.629,13.662,100.044,-0.0015099
17.52,192.829,13.662,100.041,-0.0013759
17.74,195.029,13.661,100.039,-0.0013750
17.96,197.23,13.661,100.035,-0.0016473
18.18,199.43,13.66,100.032,-0.0018807
18.4,201.631,13.66,100.028,-0.0018278
18.62,203.831,13.659,100.024,-0.0018802
18.84,206.031,13.659,100.02,-0.0017379
19.06,208.232,13.658,100.017,-0.0014675
19.28,210.432,13.658,100.013,-0.0018357
19.5,212.633,13.657,100.009,-0.0020604
19.72,214.833,13.656,100.004,-0.0017825
19.94,217.033,13.656,100,-0.0019234
20.16,219.234,13.655,99.996,-0.0016945
20.38,221.434,13.655,99.991,-0.0017002
20.6,223.635,13.654,99.987,-0.0019293
20.82,225.835,13.653,99.982,-0.0019698
21.04,228.035,13.653,99.977,-0.0023309
21.26,230.236,13.652,99.972,-0.0022894
21.48,232.436,13.652,99.968,-0.0021097
21.7,234.637,13.651,99.963,-0.0022450
21.92,236.837,13.65,99.958,-0.0022368
22.14,239.037,13.649,99.953,-0.0025660
22.36,241.238,13.649,99.948,-0.0026115
22.58,243.438,13.648,99.942,-0.0023362
22.8,245.639,13.647,99.937,-0.0022915
23.02,247.839,13.647,99.932,-0.0024703
23.24,250.039,13.646,99.926,-0.0027462
23.46,252.24,13.645,99.921,-0.0025684
23.68,254.44,13.644,99.915,-0.0027918
23.9,256.64,13.643,99.908,-0.0027951
24.12,258.841,13.643,99.902,-0.0027910
24.34,261.041,13.642,99.896,-0.0028899
24.56,263.242,13.641,99.889,-0.0028831
24.78,265.442,13.64,99.882,-0.0030220
25,267.642,13.639,99.875,-0.0032069
25.22,269.843,13.638,99.868,-0.0032503
25.44,272.043,13.637,99.86,-0.0035309
25.66,274.244,13.636,99.852,-0.0038905
25.88,276.444,13.635,99.844,-0.0038476
26.11,278.644,13.633,99.835,-0.0042606
26.33,280.845,13.632,99.826,-0.0043025
26.54,283.045,13.631,99.816,-0.0045830
26.77,285.246,13.629,99.806,-0.0046729
26.98,287.446,13.628,99.795,-0.0050871
27.21,289.646,13.626,99.784,-0.0056349
27.43,291.847,13.625,99.771,-0.0057692
27.64,294.047,13.623,99.759,-0.0057819
27.87,296.248,13.621,99.746,-0.0061927
28.08,298.448,13.619,99.732,-0.0065380
28.31,300.648,13.617,99.718,-0.0068186
28.53,302.849,13.615,99.703,-0.0071101
28.75,305.049,13.613,99.687,-0.0073287
28.97,307.25,13.611,99.671,-0.0075051
29.19,309.45,13.609,99.655,-0.0076007
29.41,311.65,13.606,99.638,-0.0079154
29.63,313.851,13.604,99.621,-0.0083243
29.85,316.051,13.602,99.603,-0.0082110
30.07,318.251,13.599,99.585,-0.0081960
30.29,320.452,13.597,99.566,-0.0084815
30.51,322.652,13.594,99.547,-0.0085243
30.73,324.853,13.591,99.528,-0.0090659
30.95,327.053,13.589,99.508,-0.0087342
31.17,329.253,13.586,99.489,-0.0089579
31.39,331.454,13.583,99.469,-0.0087156
31.61,333.654,13.581,99.45,-0.0090268
31.83,335.855,13.578,99.431,-0.0085923
32.05,338.055,13.576,99.412,-0.0087550
32.27,340.255,13.573,99.393,-0.0079938
32.49,342.456,13.571,99.375,-0.0080615
32.71,344.656,13.568,99.357,-0.0077839
32.93,346.857,13.566,99.34,-0.0077839
33.15,349.057,13.564,99.324,-0.0073193
33.37,351.257,13.561,99.308,-0.0067703
33.59,353.458,13.559,99.293,-0.0068794
33.81,355.658,13.557,99.278,-0.0066235
34.03,357.859,13.555,99.263,-0.0066477
34.25,360.059,13.553,99.247,-0.0074244
34.47,362.259,13.551,99.232,-0.0070119
34.69,364.46,13.549,99.216,-0.0076284
34.91,366.66,13.547,99.199,-0.0078339
35.13,368.861,13.544,99.181,-0.0083441
35.35,371.061,13.542,99.163,-0.0085056
35.57,373.261,13.539,99.143,-0.0091034
35.79,375.462,13.536,99.122,-0.0100733
36.01,377.662,13.533,99.098,-0.0109593
36.23,379.862,13.529,99.072,-0.0123288
36.45,382.063,13.525,99.044,-0.0131363
36.67,384.263,13.521,99.013,-0.0148646
36.89,386.464,13.516,98.979,-0.0166514
37.11,388.664,13.511,98.941,-0.0182244
37.33,390.864,13.506,98.899,-0.0196249
37.55,393.065,13.499,98.853,-0.0221409
37.77,395.265,13.492,98.801,-0.0246874
37.99,397.466,13.484,98.744,-0.0276409
38.21,399.666,13.476,98.679,-0.0312729
38.43,401.866,13.466,98.607,-0.0347120
38.65,404.067,13.455,98.526,-0.0387324
38.87,406.267,13.442,98.436,-0.0435897
39.09,408.468,13.428,98.334,-0.0489945
39.31,410.668,13.413,98.219,-0.0555861
39.53,412.868,13.395,98.088,-0.0639343
39.75,415.069,13.374,97.938,-0.0725836
39.97,417.269,13.35,97.763,-0.0940584
40.19,419.47,13.319,97.536,-0.1089890
40.41,421.67,13.282,97.259,-0.1385590
40.63,423.87,13.238,96.941,-0.1547870
40.85,426.071,13.188,96.574,-0.1796620
41.07,428.271,13.129,96.141,-0.2136450
41.29,430.472,13.061,95.641,-0.2525150
41.51,432.672,12.98,95.049,-0.2913760
41.73,434.872,12.884,94.348,-0.3481320
41.95,437.073,12.77,93.514,-0.4210550
42.17,439.273,12.639,92.553,-0.4840610
42.39,441.473,12.477,91.371,-0.5914650
42.61,443.674,12.283,89.947,-0.6993800
42.83,445.874,12.054,88.27,-0.8475590
43.05,448.075,11.76,86.117,-1.07305
43.27,450.275,11.428,83.688,-1.276
43.49,452.475,11.021,80.702,-1.41945
43.71,454.676,10.54,77.186,-1.75147
43.93,456.876,9.986,73.122,-2.01349
44.15,459.077,9.338,68.378,-2.36287
44.37,461.277,8.599,62.967,-2.67091
44.59,463.477,7.766,56.866,-2.95256
44.81,465.678,6.822,49.957,-3.3125
45.03,467.878,5.811,42.553,-3.47733
45.25,470.079,4.759,34.852,-3.56979
45.47,472.279,3.682,26.961,-3.52009
45.69,474.479,2.751,20.142,-2.96045
45.91,476.68,1.936,14.179,-2.39416
46.13,478.88,1.312,9.605,-1.73823
46.35,481.081,0.8940000,6.549,-1.06607
46.56,483.281,0.6600000,4.831,-0.5118990
46.79,485.481,0.5600000,4.103,-0.1712050
47.01,487.682,0.5340000,3.908,-0.0472928
47.23,489.882,0.5220000,3.823,-0.0278823
47.45,492.083,0.5160000,3.781,-0.0112586
47.67,494.283,0.5140000,3.766,-0.0038948
47.89,496.483,0.5140000,3.761,-0.0013940
48.11,498.684,0.5130000,3.759,-0.0002506
48.33,500.884,0.5130000,3.759,-0.0002363
48.55,503.084,0.5130000,3.758,0.0003673
48.77,505.285,0.5130000,3.759,0.0004547
48.99,507.485,0.5130000,3.759,0.0000388
49.21,509.686,0.5130000,3.759,-0.0000801
49.43,511.886,0.5130000,3.76,0.0000800
49.65,514.086,0.5130000,3.76,0.0003245
49.87,516.287,0.5130000,3.76,0.0001703
50.09,518.487,0.5130000,3.76,0.0001248
50.31,520.688,0.5140000,3.76,0.0001617
50.53,522.888,0.5140000,3.761,-0.0001285
50.75,525.088,0.5140000,3.761,0.0002602
50.97,527.289,0.5140000,3.761,-0.0001586
51.19,529.489,0.5140000,3.762,-0.0001099
51.41,531.69,0.5140000,3.762,-0.0000358
51.63,533.89,0.5140000,3.762,-0.0002087
51.85,536.09,0.5140000,3.762,0.0002435
52.07,538.291,0.5140000,3.762,-0.0000114
52.29,540.491,0.5140000,3.762,-0.0001288
52.51,542.692,0.5140000,3.762,-0.0000716
52.73,544.892,0.5140000,3.762,0.0002888
52.95,547.092,0.5140000,3.762,0.0000645
53.16,549.293,0.5140000,3.762,0.0001910
53.39,551.493,0.5140000,3.761,-0.0004412
53.61,553.694,0.5140000,3.761,0.0000516
53.83,555.894,0.5140000,3.761,0.0001398
54.04,558.094,0.5140000,3.761,-0.0000558
54.26,560.295,0.5140000,3.76,-0.0002304
54.49,562.495,0.5130000,3.76,-0.0001832
54.71,564.695,0.5130000,3.759,-0.0005383
54.93,566.896,0.5130000,3.758,-0.0006367
55.14,569.096,0.5130000,3.757,-0.0004827
55.36,571.297,0.5130000,3.756,-0.0007277
55.59,573.497,0.5130000,3.754,-0.0009115
55.81,575.697,0.5120000,3.753,-0.0009324
56.03,577.898,0.5120000,3.751,-0.0003234
56.24,580.098,0.5120000,3.749,-0.0008229
56.46,582.299,0.5120000,3.747,-0.0009213
56.68,584.499,0.5110000,3.745,-0.0008333
56.9,586.699,0.5110000,3.743,-0.0007555
57.12,588.9,0.5110000,3.742,-0.0008903
57.23,590,0.5110000,3.741,-0.0008106