File: R/rHDPE_App/app/www/Output/TGA/Condensed_Data/Resin17_0__1.csv
0.8700000,30,12.667,100.025,0.0087407
1.14,32.3004,12.668,100.033,0.0029690
1.41,34.6008,12.669,100.039,0.0031006
1.66,36.9012,12.67,100.043,0.0002977
1.9,39.2016,12.67,100.047,0.0010263
2.15,41.5021,12.671,100.051,0.0015023
2.39,43.8025,12.671,100.054,0.0017818
2.63,46.1029,12.672,100.058,0.0014806
2.87,48.4033,12.672,100.061,0.0013753
3.11,50.7037,12.672,100.065,0.0014611
3.34,53.0041,12.673,100.068,0.0015004
3.58,55.3045,12.673,100.072,0.0013539
3.81,57.6049,12.674,100.075,0.0012091
4.05,59.9053,12.674,100.078,0.0013444
4.28,62.2058,12.674,100.081,0.0010633
4.51,64.5062,12.675,100.084,0.0013837
4.74,66.8066,12.675,100.086,0.0013820
4.98,69.107,12.676,100.089,0.0011036
5.21,71.4074,12.676,100.092,0.0008259
5.44,73.7078,12.676,100.094,0.0007792
5.67,76.0082,12.676,100.097,0.0007332
5.9,78.3086,12.677,100.099,0.0008244
6.13,80.609,12.677,100.101,0.0007322
6.36,82.9094,12.677,100.103,0.0007785
6.59,85.2099,12.678,100.105,0.0007325
6.82,87.5103,12.678,100.107,0.0005034
7.05,89.8107,12.678,100.109,0.0005031
7.28,92.1111,12.678,100.11,0.0004115
7.51,94.4115,12.678,100.111,0.0003204
7.74,96.7119,12.678,100.112,0.0003657
7.97,99.0123,12.679,100.114,0.0005949
8.2,101.313,12.679,100.115,0.0004572
8.43,103.613,12.679,100.116,0.0002289
8.66,105.914,12.679,100.117,0.0005038
8.89,108.214,12.679,100.118,0.0002287
9.12,110.514,12.679,100.118,0.0000000
9.35,112.815,12.679,100.119,0.0003205
9.58,115.115,12.679,100.12,-0.0000458
9.81,117.416,12.679,100.12,0.0004580
10.04,119.716,12.68,100.121,0.0002291
10.27,122.016,12.68,100.121,-0.0000458
10.5,124.317,12.68,100.122,0.0000458
10.73,126.617,12.68,100.123,0.0005953
10.96,128.918,12.68,100.124,0.0006415
11.19,131.218,12.68,100.125,0.0004132
11.42,133.518,12.68,100.126,0.0002294
11.65,135.819,12.68,100.127,0.0009160
11.88,138.119,12.68,100.128,0.0003205
12.11,140.42,12.68,100.127,-0.0008229
12.34,142.72,12.68,100.125,-0.0017727
12.57,145.021,12.679,100.12,-0.0019546
12.8,147.321,12.679,100.116,-0.0013264
13.03,149.621,12.679,100.114,-0.0008243
13.26,151.922,12.678,100.112,-0.0008732
13.49,154.222,12.678,100.11,-0.0000918
13.72,156.523,12.678,100.11,-0.0004591
13.95,158.823,12.678,100.109,-0.0005054
14.18,161.123,12.678,100.108,-0.0003676
14.41,163.424,12.678,100.107,-0.0001373
14.64,165.724,12.678,100.106,-0.0005498
14.87,168.025,12.678,100.106,-0.0003223
15.1,170.325,12.678,100.105,-0.0001377
15.33,172.625,12.677,100.104,-0.0005489
15.56,174.926,12.677,100.103,-0.0000915
15.79,177.226,12.677,100.103,-0.0000000
16.02,179.527,12.677,100.102,-0.0002289
16.25,181.827,12.677,100.101,-0.0007333
16.48,184.128,12.677,100.101,-0.0002751
16.71,186.428,12.677,100.1,-0.0002750
16.94,188.728,12.677,100.099,-0.0001833
17.17,191.029,12.677,100.098,-0.0005939
17.4,193.329,12.677,100.097,-0.0005519
17.63,195.63,12.677,100.097,-0.0001375
17.86,197.93,12.676,100.096,-0.0006393
18.09,200.23,12.676,100.095,-0.0002293
18.33,202.531,12.676,100.095,-0.0003212
18.56,204.831,12.676,100.094,-0.0007796
18.78,207.132,12.676,100.093,-0.0005495
19.02,209.432,12.676,100.092,-0.0004580
19.25,211.732,12.676,100.091,-0.0004586
19.48,214.033,12.676,100.09,-0.0001833
19.71,216.333,12.676,100.089,-0.0002288
19.94,218.634,12.675,100.088,-0.0005962
20.17,220.934,12.675,100.087,-0.0007334
20.4,223.235,12.675,100.086,-0.0000911
20.63,225.535,12.675,100.085,-0.0004584
20.86,227.835,12.675,100.084,-0.0004599
21.09,230.136,12.675,100.083,-0.0006870
21.32,232.436,12.675,100.082,-0.0002286
21.55,234.737,12.674,100.081,0.0000458
21.78,237.037,12.674,100.08,-0.0005099
22.01,239.337,12.674,100.079,-0.0004549
22.24,241.638,12.674,100.078,-0.0004096
22.47,243.938,12.674,100.077,-0.0001832
22.7,246.239,12.674,100.076,-0.0008239
22.93,248.539,12.674,100.074,-0.0006418
23.16,250.839,12.674,100.073,-0.0002748
23.39,253.14,12.673,100.072,-0.0003201
23.62,255.44,12.673,100.071,-0.0007334
23.85,257.741,12.673,100.07,-0.0005501
24.08,260.041,12.673,100.069,-0.0000458
24.31,262.341,12.673,100.068,-0.0004587
24.54,264.642,12.673,100.066,-0.0005947
24.77,266.942,12.672,100.065,-0.0007313
25,269.243,12.672,100.064,-0.0005958
25.23,271.543,12.672,100.062,-0.0005037
25.46,273.844,12.672,100.061,-0.0008692
25.69,276.144,12.672,100.059,-0.0007335
25.92,278.444,12.672,100.058,-0.0004569
26.15,280.745,12.671,100.056,-0.0006422
26.38,283.045,12.671,100.054,-0.0006877
26.61,285.346,12.671,100.053,-0.0009621
26.84,287.646,12.671,100.051,-0.0010088
27.07,289.946,12.67,100.049,-0.0009154
27.3,292.247,12.67,100.047,-0.0010060
27.53,294.547,12.67,100.045,-0.0010527
27.76,296.848,12.67,100.043,-0.0014666
27.99,299.148,12.669,100.041,-0.0012837
28.22,301.448,12.669,100.039,-0.0011430
28.45,303.749,12.669,100.037,-0.0009615
28.68,306.049,12.669,100.034,-0.0008246
28.91,308.35,12.668,100.032,-0.0010999
29.14,310.65,12.668,100.03,-0.0012809
29.38,312.951,12.668,100.027,-0.0014660
29.61,315.251,12.667,100.025,-0.0016475
29.83,317.551,12.667,100.022,-0.0010531
30.07,319.852,12.667,100.019,-0.0010080
30.29,322.152,12.666,100.016,-0.0016468
30.53,324.453,12.666,100.013,-0.0013298
30.76,326.753,12.666,100.01,-0.0011905
30.98,329.053,12.665,100.007,-0.0015110
31.22,331.354,12.665,100.004,-0.0010989
31.44,333.654,12.664,100.001,-0.0015132
31.68,335.955,12.664,99.998,-0.0015568
31.91,338.255,12.663,99.994,-0.0014652
32.13,340.555,12.663,99.99,-0.0020604
32.37,342.856,12.662,99.986,-0.0011905
32.59,345.156,12.662,99.982,-0.0020594
32.83,347.457,12.661,99.977,-0.0021512
33.06,349.757,12.661,99.973,-0.0018790
33.28,352.058,12.66,99.968,-0.0020589
33.52,354.358,12.66,99.963,-0.0017873
33.75,356.658,12.659,99.958,-0.0020154
33.98,358.959,12.658,99.952,-0.0027890
34.21,361.259,12.657,99.947,-0.0024232
34.44,363.56,12.657,99.94,-0.0030275
34.67,365.86,12.656,99.933,-0.0027915
34.9,368.16,12.655,99.926,-0.0032051
35.13,370.461,12.654,99.917,-0.0035616
35.36,372.761,12.653,99.908,-0.0042202
35.59,375.062,12.651,99.898,-0.0044872
35.82,377.362,12.65,99.887,-0.0049020
36.05,379.662,12.648,99.875,-0.0059469
36.28,381.963,12.647,99.861,-0.0063163
36.51,384.263,12.645,99.845,-0.0071886
36.74,386.564,12.642,99.828,-0.0081397
36.97,388.864,12.64,99.808,-0.0094780
37.2,391.164,12.637,99.785,-0.0101098
37.43,393.465,12.634,99.76,-0.0118525
37.66,395.765,12.63,99.732,-0.0131290
37.89,398.066,12.626,99.7,-0.0143184
38.12,400.366,12.622,99.664,-0.0165660
38.35,402.667,12.617,99.624,-0.0186185
38.58,404.967,12.611,99.579,-0.0205473
38.81,407.267,12.604,99.528,-0.0236591
39.04,409.568,12.597,99.47,-0.0260292
39.27,411.868,12.589,99.405,-0.0298425
39.5,414.169,12.58,99.332,-0.0341575
39.73,416.469,12.569,99.248,-0.0384510
39.96,418.769,12.557,99.155,-0.0429329
40.19,421.07,12.544,99.05,-0.0492868
40.42,423.37,12.528,98.927,-0.0568432
40.65,425.671,12.51,98.784,-0.0672372
40.88,427.971,12.489,98.617,-0.0791231
41.11,430.271,12.462,98.403,-0.1134160
41.34,432.572,12.424,98.104,-0.1480770
41.57,434.872,12.379,97.745,-0.1739490
41.8,437.173,12.323,97.309,-0.2109730
42.03,439.473,12.259,96.801,-0.2457920
42.26,441.774,12.175,96.138,-0.3383270
42.49,444.074,12.046,95.12,-0.5131950
42.72,446.374,11.881,93.818,-0.6218390
42.95,448.675,11.691,92.316,-0.6180340
43.18,450.975,11.49,90.731,-0.9239930
43.41,453.276,11.212,88.532,-1.10613
43.64,455.576,10.895,86.033,-1.30758
43.87,457.876,10.498,82.898,-1.48989
44.1,460.177,10.009,79.037,-1.89344
44.33,462.477,9.417,74.362,-2.21096
44.56,464.778,8.715,68.818,-2.50412
44.79,467.078,7.877,62.199,-3.22668
45.02,469.378,6.912,54.578,-3.56213
45.25,471.679,5.832,46.048,-4.00182
45.48,473.979,4.651,36.728,-3.93022
45.71,476.28,3.435,27.12,-4.27799
45.94,478.58,2.26,17.844,-3.83884
46.17,480.881,1.232,9.73,-3.16804
46.39,483.181,0.4860000,3.84,-1.96805
46.62,485.481,0.1170000,0.9250000,-0.6465290
46.85,487.782,0.0340000,0.2680000,-0.0575931
47.08,490.082,0.0240000,0.1890000,-0.0233532
47.31,492.383,0.0200000,0.1560000,-0.0074040
47.55,494.683,0.0190000,0.1460000,-0.0020198
47.78,496.983,0.0180000,0.1440000,-0.0004181
48.01,499.284,0.0180000,0.1430000,-0.0001796
48.24,501.584,0.0180000,0.1420000,-0.0000757
48.46,503.885,0.0180000,0.1430000,0.0000035
48.69,506.185,0.0180000,0.1430000,0.0003321
48.93,508.485,0.0180000,0.1430000,0.0001253
49.16,510.786,0.0180000,0.1430000,0.0000841
49.39,513.086,0.0180000,0.1430000,0.0003083
49.61,515.387,0.0180000,0.1440000,0.0001706
49.84,517.687,0.0180000,0.1440000,0.0001964
50.07,519.987,0.0180000,0.1440000,-0.0000806
50.3,522.288,0.0180000,0.1440000,-0.0005016
50.53,524.588,0.0180000,0.1440000,-0.0000053
50.76,526.889,0.0180000,0.1440000,-0.0000827
50.99,529.189,0.0180000,0.1440000,0.0005511
51.22,531.49,0.0180000,0.1440000,0.0002328
51.45,533.79,0.0180000,0.1440000,0.0002902
51.68,536.09,0.0180000,0.1440000,-0.0005570
51.91,538.391,0.0180000,0.1440000,-0.0003482
52.14,540.691,0.0180000,0.1440000,0.0001481
52.37,542.992,0.0180000,0.1440000,0.0001532
52.6,545.292,0.0180000,0.1440000,-0.0002567
52.83,547.592,0.0180000,0.1440000,-0.0004024
53.06,549.893,0.0180000,0.1440000,0.0000960
53.29,552.193,0.0180000,0.1440000,-0.0001327
53.52,554.494,0.0180000,0.1430000,-0.0001687
53.75,556.794,0.0180000,0.1430000,0.0000816
53.98,559.094,0.0180000,0.1430000,0.0002951
54.21,561.395,0.0180000,0.1430000,-0.0003338
54.44,563.695,0.0180000,0.1430000,-0.0002455
54.67,565.996,0.0180000,0.1430000,0.0000365
54.9,568.296,0.0180000,0.1430000,0.0002981
55.13,570.597,0.0180000,0.1430000,0.0000381
55.36,572.897,0.0180000,0.1420000,-0.0001315
55.59,575.197,0.0180000,0.1420000,-0.0003206
55.82,577.498,0.0180000,0.1420000,0.0000587
56.05,579.798,0.0180000,0.1420000,-0.0000308
56.28,582.099,0.0180000,0.1420000,-0.0002772
56.51,584.399,0.0180000,0.1420000,0.0003772
56.74,586.699,0.0180000,0.1420000,-0.0002783
56.97,589,0.0180000,0.1420000,0.0003640
57.07,590,0.0180000,0.1420000,0.0003804