File: R/rHDPE_App/app/www/Output/TGA/Condensed_Data/Resin24_0_.csv
1.04,30,15.023,100.034,0.0028169
1.31,32.3004,15.023,100.037,0.0010782
1.56,34.6008,15.024,100.04,0.0009481
1.81,36.9012,15.024,100.043,0.0009303
2.06,39.2016,15.024,100.046,0.0010664
2.3,41.5021,15.025,100.048,0.0008194
2.54,43.8025,15.025,100.051,0.0012447
2.78,46.1029,15.026,100.054,0.0013301
3.02,48.4033,15.026,100.057,0.0011809
3.26,50.7037,15.027,100.06,0.0013623
3.49,53.0041,15.027,100.063,0.0011217
3.73,55.3045,15.027,100.066,0.0011641
3.96,57.6049,15.028,100.069,0.0013927
4.19,59.9053,15.028,100.071,0.0011110
4.42,62.2058,15.029,100.073,0.0006469
4.65,64.5062,15.029,100.076,0.0009679
4.89,66.8066,15.029,100.078,0.0013337
5.12,69.107,15.03,100.08,0.0008725
5.35,71.4074,15.03,100.083,0.0010553
5.58,73.7078,15.03,100.085,0.0006424
5.81,76.0082,15.031,100.087,0.0009633
6.04,78.3086,15.031,100.089,0.0008689
6.27,80.609,15.031,100.09,0.0006871
6.5,82.9094,15.031,100.092,0.0005946
6.73,85.2099,15.032,100.094,0.0007322
6.96,87.5103,15.032,100.095,0.0008686
7.19,89.8107,15.032,100.097,0.0005942
7.42,92.1111,15.032,100.098,0.0009145
7.65,94.4115,15.033,100.1,0.0006856
7.88,96.7119,15.033,100.101,0.0008238
8.11,99.0123,15.033,100.102,0.0002286
8.34,101.313,15.033,100.103,0.0006405
8.57,103.613,15.033,100.104,0.0004576
8.8,105.914,15.033,100.105,0.0002290
9.03,108.214,15.033,100.106,0.0004575
9.26,110.514,15.034,100.107,0.0001375
9.49,112.815,15.034,100.108,0.0000916
9.72,115.115,15.034,100.109,0.0000912
9.95,117.416,15.034,100.109,-0.0000000
10.18,119.716,15.034,100.11,0.0004124
10.41,122.016,15.034,100.111,0.0003205
10.64,124.317,15.034,100.112,0.0004579
10.87,126.617,15.034,100.113,0.0004125
11.1,128.918,15.035,100.114,0.0005048
11.33,131.218,15.035,100.115,0.0005038
11.56,133.518,15.035,100.117,0.0004129
11.79,135.819,15.035,100.118,0.0003664
12.02,138.119,15.035,100.118,0.0000457
12.25,140.42,15.035,100.118,-0.0006407
12.48,142.72,15.035,100.116,-0.0018747
12.71,145.021,15.034,100.113,-0.0016371
12.94,147.321,15.034,100.109,-0.0012343
13.17,149.621,15.034,100.108,-0.0007326
13.4,151.922,15.034,100.106,-0.0003678
13.63,154.222,15.033,100.106,-0.0000919
13.86,156.523,15.033,100.105,-0.0004126
14.09,158.823,15.033,100.105,0.0001378
14.32,161.123,15.033,100.105,0.0001832
14.55,163.424,15.033,100.104,0.0002292
14.78,165.724,15.033,100.104,0.0000916
15.01,168.025,15.033,100.103,-0.0004117
15.24,170.325,15.033,100.103,-0.0001377
15.47,172.625,15.033,100.102,-0.0004580
15.7,174.926,15.033,100.102,-0.0005032
15.93,177.226,15.033,100.102,-0.0001375
16.16,179.527,15.033,100.101,-0.0002750
16.39,181.827,15.033,100.1,0.0000000
16.62,184.128,15.033,100.1,0.0001833
16.85,186.428,15.032,100.1,-0.0005501
17.08,188.728,15.032,100.099,-0.0002749
17.31,191.029,15.032,100.098,-0.0004583
17.54,193.329,15.032,100.098,-0.0005039
17.77,195.63,15.032,100.097,-0.0004122
18.01,197.93,15.032,100.097,-0.0006419
18.23,200.23,15.032,100.096,-0.0001376
18.47,202.531,15.032,100.095,-0.0002291
18.69,204.831,15.032,100.095,-0.0000458
18.93,207.132,15.032,100.094,-0.0001835
19.16,209.432,15.032,100.093,-0.0004582
19.39,211.732,15.031,100.093,-0.0002744
19.62,214.033,15.031,100.092,-0.0003665
19.85,216.333,15.031,100.091,-0.0001832
20.08,218.634,15.031,100.09,-0.0004584
20.31,220.934,15.031,100.09,-0.0003208
20.54,223.235,15.031,100.089,-0.0004576
20.77,225.535,15.031,100.088,-0.0002753
21,227.835,15.031,100.087,-0.0003660
21.23,230.136,15.031,100.086,-0.0002291
21.46,232.436,15.03,100.085,-0.0005500
21.69,234.737,15.03,100.085,-0.0005954
21.92,237.037,15.03,100.084,-0.0005488
22.15,239.337,15.03,100.083,-0.0006420
22.38,241.638,15.03,100.082,-0.0001374
22.61,243.938,15.03,100.081,-0.0004576
22.84,246.239,15.03,100.08,-0.0005034
23.07,248.539,15.029,100.079,-0.0002757
23.3,250.839,15.029,100.077,-0.0006397
23.53,253.14,15.029,100.076,-0.0005040
23.76,255.44,15.029,100.075,-0.0004122
23.99,257.741,15.029,100.074,-0.0005502
24.22,260.041,15.029,100.073,-0.0005955
24.45,262.341,15.028,100.072,-0.0003666
24.68,264.642,15.028,100.071,-0.0008245
24.91,266.942,15.028,100.069,-0.0005959
25.14,269.243,15.028,100.068,-0.0005039
25.37,271.543,15.028,100.066,-0.0007330
25.6,273.844,15.027,100.065,-0.0005491
25.83,276.144,15.027,100.063,-0.0007339
26.06,278.444,15.027,100.062,-0.0004116
26.29,280.745,15.027,100.06,-0.0006409
26.52,283.045,15.026,100.059,-0.0006416
26.75,285.346,15.026,100.057,-0.0006414
26.98,287.646,15.026,100.055,-0.0007313
27.21,289.946,15.026,100.053,-0.0008256
27.44,292.247,15.025,100.051,-0.0010543
27.67,294.547,15.025,100.05,-0.0008245
27.9,296.848,15.025,100.048,-0.0007326
28.13,299.148,15.024,100.046,-0.0008242
28.36,301.448,15.024,100.044,-0.0009615
28.59,303.749,15.024,100.042,-0.0008689
28.82,306.049,15.024,100.04,-0.0007344
29.05,308.35,15.023,100.038,-0.0009628
29.28,310.65,15.023,100.036,-0.0009163
29.51,312.951,15.023,100.033,-0.0010506
29.74,315.251,15.022,100.031,-0.0006404
29.97,317.551,15.022,100.029,-0.0012837
30.2,319.852,15.021,100.026,-0.0010989
30.43,322.152,15.021,100.023,-0.0011905
30.66,324.453,15.021,100.021,-0.0007784
30.89,326.753,15.02,100.018,-0.0013741
31.13,329.053,15.02,100.016,-0.0011909
31.35,331.354,15.019,100.013,-0.0010067
31.58,333.654,15.019,100.01,-0.0014220
31.82,335.955,15.019,100.007,-0.0013271
32.04,338.255,15.018,100.004,-0.0013254
32.27,340.555,15.018,100,-0.0011898
32.51,342.856,15.017,99.997,-0.0011458
32.73,345.156,15.016,99.993,-0.0015118
32.97,347.457,15.016,99.989,-0.0016020
33.19,349.757,15.015,99.985,-0.0019161
33.43,352.058,15.015,99.98,-0.0021101
33.66,354.358,15.014,99.975,-0.0016035
33.88,356.658,15.013,99.97,-0.0024702
34.12,358.959,15.012,99.964,-0.0024298
34.34,361.259,15.011,99.958,-0.0029374
34.58,363.56,15.01,99.951,-0.0026950
34.81,365.86,15.009,99.944,-0.0032889
35.04,368.16,15.008,99.937,-0.0031651
35.26,370.461,15.007,99.928,-0.0036643
35.49,372.761,15.005,99.919,-0.0041209
35.73,375.062,15.004,99.908,-0.0048103
35.96,377.362,15.002,99.896,-0.0053473
36.19,379.662,15,99.883,-0.0060440
36.41,381.963,14.998,99.868,-0.0070055
36.64,384.263,14.995,99.851,-0.0080201
36.88,386.564,14.992,99.832,-0.0089123
37.11,388.864,14.989,99.81,-0.0104186
37.34,391.164,14.985,99.783,-0.0122711
37.56,393.465,14.98,99.753,-0.0141501
37.79,395.765,14.975,99.717,-0.0168993
38.03,398.066,14.969,99.676,-0.0193186
38.26,400.366,14.962,99.628,-0.0221594
38.49,402.667,14.953,99.573,-0.0258842
38.71,404.967,14.944,99.508,-0.0297989
38.94,407.267,14.933,99.435,-0.0344163
39.18,409.568,14.92,99.35,-0.0393629
39.41,411.868,14.905,99.254,-0.0447816
39.64,414.169,14.889,99.144,-0.0506602
39.86,416.469,14.87,99.021,-0.0564842
40.09,418.769,14.85,98.884,-0.0629802
40.33,421.07,14.827,98.729,-0.0724609
40.56,423.37,14.798,98.535,-0.0951856
40.79,425.671,14.76,98.285,-0.1159170
41.02,427.971,14.716,97.991,-0.1351460
41.24,430.271,14.66,97.619,-0.1730420
41.48,432.572,14.596,97.195,-0.1981680
41.71,434.872,14.524,96.711,-0.2251930
41.94,437.173,14.436,96.13,-0.2803300
42.16,439.473,14.332,95.435,-0.3267120
42.39,441.774,14.206,94.594,-0.4090370
42.63,444.074,14.044,93.518,-0.5465300
42.86,446.374,13.82,92.026,-0.7402470
43.09,448.675,13.555,90.258,-0.8806320
43.32,450.975,13.216,88.005,-1.04522
43.54,453.276,12.819,85.359,-1.27296
43.78,455.576,12.329,82.095,-1.56278
44.01,457.876,11.758,78.292,-1.78785
44.24,460.177,11.058,73.632,-2.27969
44.47,462.477,10.221,68.061,-2.68186
44.7,464.778,9.261,61.67,-3.19605
44.93,467.078,8.116,54.041,-3.56477
45.16,469.378,6.839,45.541,-3.81244
45.39,471.679,5.453,36.311,-4.08597
45.62,473.979,4.013,26.721,-4.12533
45.85,476.28,2.637,17.557,-3.83664
46.08,478.58,1.411,9.393,-2.69668
46.31,480.881,0.6020000,4.011,-1.83307
46.54,483.181,0.1650000,1.097,-0.7151330
46.76,485.481,0.0340000,0.2240000,-0.1289940
46.99,487.782,0.0150000,0.1010000,-0.0312141
47.22,490.082,0.0080000,0.0540000,-0.0116174
47.46,492.383,0.0060000,0.0380000,-0.0031401
47.69,494.683,0.0050000,0.0340000,-0.0009946
47.92,496.983,0.0050000,0.0320000,0.0000038
48.15,499.284,0.0050000,0.0320000,-0.0000552
48.38,501.584,0.0050000,0.0320000,-0.0000801
48.61,503.885,0.0050000,0.0320000,0.0002464
48.84,506.185,0.0050000,0.0320000,-0.0001592
49.06,508.485,0.0050000,0.0320000,-0.0002733
49.29,510.786,0.0050000,0.0320000,0.0000039
49.52,513.086,0.0050000,0.0330000,0.0001578
49.75,515.387,0.0050000,0.0330000,0.0000072
49.98,517.687,0.0050000,0.0330000,0.0000949
50.21,519.987,0.0050000,0.0330000,-0.0001438
50.44,522.288,0.0050000,0.0330000,0.0002125
50.67,524.588,0.0050000,0.0340000,-0.0000532
50.9,526.889,0.0050000,0.0340000,0.0002237
51.13,529.189,0.0050000,0.0340000,-0.0002507
51.36,531.49,0.0050000,0.0340000,0.0001146
51.59,533.79,0.0050000,0.0340000,0.0000230
51.82,536.09,0.0050000,0.0340000,0.0002205
52.05,538.391,0.0050000,0.0340000,0.0001355
52.28,540.691,0.0050000,0.0340000,-0.0003202
52.51,542.992,0.0050000,0.0350000,0.0001653
52.74,545.292,0.0050000,0.0350000,-0.0002405
52.97,547.592,0.0050000,0.0350000,0.0000652
53.2,549.893,0.0050000,0.0350000,0.0000236
53.43,552.193,0.0050000,0.0360000,0.0002497
53.66,554.494,0.0050000,0.0360000,0.0001130
53.89,556.794,0.0050000,0.0360000,0.0002201
54.12,559.094,0.0050000,0.0360000,0.0001232
54.35,561.395,0.0050000,0.0360000,-0.0004663
54.58,563.695,0.0050000,0.0360000,0.0000964
54.81,565.996,0.0050000,0.0360000,0.0002976
55.04,568.296,0.0050000,0.0360000,-0.0002390
55.27,570.597,0.0050000,0.0360000,0.0000501
55.5,572.897,0.0060000,0.0370000,0.0003231
55.73,575.197,0.0060000,0.0370000,-0.0000423
55.96,577.498,0.0060000,0.0370000,-0.0000805
56.19,579.798,0.0060000,0.0370000,-0.0001105
56.42,582.099,0.0060000,0.0370000,0.0001332
56.65,584.399,0.0060000,0.0370000,0.0000909
56.88,586.699,0.0060000,0.0380000,0.0000528
57.11,589,0.0060000,0.0380000,0.0002005
57.21,590,0.0060000,0.0380000,0.0001852