File: R/rHDPE_App/app/www/Output/TGA/Condensed_Data/Resin15_0__1.csv
0.7500000,30,11.197,100.009,0.0024330
1.04,32.3004,11.198,100.015,-0.0000540
1.31,34.6008,11.198,100.017,0.0010297
1.56,36.9012,11.198,100.017,0.0007004
1.81,39.2016,11.198,100.019,0.0010807
2.06,41.5021,11.198,100.019,0.0003883
2.3,43.8025,11.198,100.021,0.0016408
2.54,46.1029,11.199,100.023,0.0009101
2.78,48.4033,11.199,100.026,0.0007136
3.02,50.7037,11.199,100.028,0.0014658
3.26,53.0041,11.199,100.031,0.0010341
3.49,55.3045,11.2,100.033,0.0010284
3.73,57.6049,11.2,100.036,0.0007452
3.96,59.9053,11.2,100.038,0.0010681
4.19,62.2058,11.2,100.04,0.0012034
4.42,64.5062,11.201,100.042,0.0006921
4.65,66.8066,11.201,100.044,0.0011976
4.89,69.107,11.201,100.047,0.0008277
5.12,71.4074,11.201,100.049,0.0012401
5.35,73.7078,11.202,100.051,0.0003211
5.58,76.0082,11.202,100.052,0.0006422
5.81,78.3086,11.202,100.054,0.0005495
6.04,80.609,11.202,100.056,0.0006416
6.27,82.9094,11.202,100.057,0.0006871
6.5,85.2099,11.203,100.059,0.0003662
6.73,87.5103,11.203,100.06,0.0006869
6.96,89.8107,11.203,100.061,-0.0000457
7.19,92.1111,11.203,100.062,0.0003200
7.42,94.4115,11.203,100.063,0.0004117
7.65,96.7119,11.203,100.063,0.0003201
7.88,99.0123,11.203,100.064,0.0001372
8.11,101.313,11.203,100.065,0.0002286
8.34,103.613,11.203,100.066,-0.0000000
8.57,105.914,11.203,100.066,0.0005041
8.8,108.214,11.203,100.066,0.0003662
9.03,110.514,11.203,100.067,0.0003206
9.26,112.815,11.203,100.066,0.0004579
9.49,115.115,11.203,100.066,-0.0003210
9.72,117.416,11.203,100.066,0.0005492
9.95,119.716,11.203,100.066,0.0002289
10.18,122.016,11.203,100.066,0.0000000
10.41,124.317,11.203,100.066,0.0002751
10.64,126.617,11.203,100.066,0.0003206
10.87,128.918,11.204,100.067,0.0005492
11.1,131.218,11.204,100.068,0.0007802
11.33,133.518,11.204,100.069,0.0002294
11.56,135.819,11.204,100.069,0.0006878
11.79,138.119,11.204,100.069,-0.0000457
12.02,140.42,11.203,100.066,-0.0016401
12.25,142.72,11.203,100.061,-0.0023587
12.48,145.021,11.202,100.056,-0.0020063
12.71,147.321,11.202,100.051,-0.0016966
12.94,149.621,11.201,100.048,-0.0011945
13.17,151.922,11.201,100.046,-0.0006427
13.4,154.222,11.201,100.044,-0.0016085
13.63,156.523,11.201,100.042,-0.0004138
13.86,158.823,11.201,100.04,-0.0007772
14.09,161.123,11.2,100.038,-0.0005969
14.32,163.424,11.2,100.036,-0.0004133
14.55,165.724,11.2,100.035,-0.0008710
14.78,168.025,11.2,100.033,-0.0009158
15.01,170.325,11.2,100.031,-0.0001833
15.24,172.625,11.199,100.029,-0.0006422
15.47,174.926,11.199,100.028,-0.0004128
15.7,177.226,11.199,100.026,-0.0008230
15.93,179.527,11.199,100.024,-0.0008732
16.17,181.827,11.199,100.022,-0.0006878
16.4,184.128,11.198,100.02,-0.0007776
16.63,186.428,11.198,100.018,-0.0010989
16.85,188.728,11.198,100.016,-0.0008714
17.08,191.029,11.198,100.014,-0.0004575
17.32,193.329,11.197,100.012,-0.0013295
17.54,195.63,11.197,100.01,-0.0016148
17.78,197.93,11.197,100.007,-0.0011878
18.01,200.23,11.197,100.005,-0.0010974
18.24,202.531,11.196,100.002,-0.0005500
18.47,204.831,11.196,99.999,-0.0011926
18.7,207.132,11.196,99.997,-0.0016032
18.93,209.432,11.195,99.995,-0.0010537
19.16,211.732,11.195,99.992,-0.0010070
19.39,214.033,11.195,99.989,-0.0009149
19.62,216.333,11.195,99.986,-0.0016499
19.85,218.634,11.194,99.984,-0.0010999
20.08,220.934,11.194,99.981,-0.0015118
20.31,223.235,11.194,99.978,-0.0015099
20.54,225.535,11.193,99.975,-0.0013283
20.77,227.835,11.193,99.971,-0.0015596
21,230.136,11.192,99.968,-0.0015592
21.23,232.436,11.192,99.965,-0.0009611
21.46,234.737,11.192,99.961,-0.0010084
21.69,237.037,11.191,99.958,-0.0013762
21.92,239.337,11.191,99.954,-0.0014185
22.15,241.638,11.19,99.95,-0.0014657
22.38,243.938,11.19,99.946,-0.0013291
22.61,246.239,11.19,99.943,-0.0016977
22.84,248.539,11.189,99.939,-0.0016914
23.07,250.839,11.189,99.935,-0.0017886
23.3,253.14,11.188,99.931,-0.0016040
23.53,255.44,11.188,99.927,-0.0019698
23.76,257.741,11.187,99.923,-0.0019260
23.99,260.041,11.187,99.919,-0.0018315
24.22,262.341,11.186,99.914,-0.0015596
24.45,264.642,11.186,99.91,-0.0025189
24.68,266.942,11.185,99.905,-0.0025697
24.91,269.243,11.185,99.9,-0.0010979
25.14,271.543,11.184,99.896,-0.0020194
25.37,273.844,11.184,99.891,-0.0022366
25.6,276.144,11.183,99.886,-0.0024334
25.83,278.444,11.183,99.882,-0.0021560
26.06,280.745,11.182,99.876,-0.0021990
26.29,283.045,11.182,99.871,-0.0026557
26.52,285.346,11.181,99.866,-0.0022498
26.76,287.646,11.18,99.86,-0.0024743
26.98,289.946,11.18,99.855,-0.0023309
27.21,292.247,11.179,99.849,-0.0022902
27.44,294.547,11.178,99.843,-0.0023322
27.68,296.848,11.178,99.837,-0.0030745
27.91,299.148,11.177,99.831,-0.0027854
28.13,301.448,11.176,99.825,-0.0028466
28.37,303.749,11.176,99.819,-0.0030723
28.59,306.049,11.175,99.812,-0.0026965
28.83,308.35,11.174,99.806,-0.0029784
29.06,310.65,11.174,99.8,-0.0027971
29.29,312.951,11.173,99.793,-0.0024739
29.52,315.251,11.172,99.787,-0.0030678
29.75,317.551,11.171,99.78,-0.0022906
29.98,319.852,11.171,99.774,-0.0031136
30.21,322.152,11.17,99.767,-0.0031606
30.44,324.453,11.169,99.759,-0.0031651
30.67,326.753,11.168,99.752,-0.0036543
30.9,329.053,11.167,99.745,-0.0036193
31.13,331.354,11.167,99.737,-0.0032139
31.36,333.654,11.166,99.729,-0.0032551
31.59,335.955,11.165,99.721,-0.0036994
31.82,338.255,11.164,99.713,-0.0038883
32.05,340.555,11.163,99.705,-0.0040419
32.28,342.856,11.162,99.697,-0.0037068
32.51,345.156,11.161,99.688,-0.0039391
32.74,347.457,11.16,99.68,-0.0039248
32.97,349.757,11.159,99.671,-0.0042661
33.2,352.058,11.158,99.662,-0.0041591
33.43,354.358,11.157,99.652,-0.0040773
33.66,356.658,11.156,99.642,-0.0041690
33.89,358.959,11.155,99.632,-0.0047118
34.12,361.259,11.154,99.62,-0.0046703
34.35,363.56,11.152,99.609,-0.0056725
34.58,365.86,11.151,99.596,-0.0054976
34.81,368.16,11.149,99.583,-0.0055861
35.04,370.461,11.148,99.569,-0.0061735
35.27,372.761,11.146,99.554,-0.0068285
35.5,375.062,11.144,99.538,-0.0073718
35.73,377.362,11.142,99.52,-0.0079641
35.96,379.662,11.14,99.5,-0.0090152
36.19,381.963,11.138,99.478,-0.0102051
36.42,384.263,11.135,99.453,-0.0110207
36.65,386.564,11.132,99.425,-0.0130566
36.88,388.864,11.128,99.394,-0.0139601
37.11,391.164,11.124,99.36,-0.0155507
37.34,393.465,11.12,99.323,-0.0170235
37.57,395.765,11.115,99.28,-0.0201192
37.8,398.066,11.11,99.233,-0.0215864
38.03,400.366,11.104,99.18,-0.0243701
38.26,402.667,11.098,99.121,-0.0271978
38.49,404.967,11.09,99.056,-0.0305135
38.72,407.267,11.082,98.982,-0.0334707
38.95,409.568,11.073,98.899,-0.0383947
39.18,411.868,11.062,98.805,-0.0430497
39.41,414.169,11.05,98.699,-0.0488374
39.64,416.469,11.037,98.579,-0.0556267
39.87,418.769,11.022,98.441,-0.0646709
40.1,421.07,11.004,98.281,-0.0768138
40.33,423.37,10.981,98.079,-0.0966575
40.56,425.671,10.951,97.816,-0.1300840
40.79,427.971,10.914,97.484,-0.1517370
41.02,430.271,10.868,97.074,-0.1924940
41.25,432.572,10.815,96.6,-0.2163700
41.48,434.872,10.755,96.061,-0.2591180
41.71,437.173,10.684,95.423,-0.2923990
41.94,439.473,10.6,94.677,-0.3502290
42.17,441.774,10.5,93.787,-0.4506120
42.4,444.074,10.366,92.587,-0.6016000
42.63,446.374,10.197,91.079,-0.7485820
42.86,448.675,10.012,89.423,-0.7078830
43.09,450.975,9.775,87.304,-1.08615
43.32,453.276,9.477,84.645,-1.20464
43.55,455.576,9.098,81.261,-1.59212
43.78,457.876,8.663,77.372,-2.11705
44.01,460.177,8.178,73.042,-2.0054
44.24,462.477,7.608,67.953,-2.42372
44.47,464.778,6.934,61.932,-2.99359
44.7,467.078,6.159,55.012,-3.04018
44.93,469.378,5.34,47.693,-3.35246
45.16,471.679,4.43,39.571,-3.60335
45.39,473.979,3.455,30.862,-3.7294
45.62,476.28,2.468,22.042,-3.75909
45.85,478.58,1.544,13.792,-3.35627
46.08,480.881,0.7930000,7.082,-2.38498
46.31,483.181,0.3020000,2.695,-1.37203
46.54,485.481,0.0800000,0.7170000,-0.4391920
46.76,487.782,0.0290000,0.2620000,-0.0479075
46.99,490.082,0.0190000,0.1670000,-0.0276686
47.23,492.383,0.0140000,0.1280000,-0.0090153
47.46,494.683,0.0130000,0.1160000,-0.0028874
47.69,496.983,0.0130000,0.1130000,-0.0009954
47.92,499.284,0.0120000,0.1110000,-0.0003005
48.15,501.584,0.0120000,0.1110000,0.0001002
48.38,503.885,0.0120000,0.1110000,0.0002304
48.61,506.185,0.0120000,0.1110000,-0.0002604
48.84,508.485,0.0130000,0.1120000,0.0000077
49.07,510.786,0.0130000,0.1120000,0.0004650
49.29,513.086,0.0130000,0.1120000,0.0003515
49.53,515.387,0.0130000,0.1130000,-0.0000914
49.76,517.687,0.0130000,0.1130000,0.0002379
49.99,519.987,0.0130000,0.1130000,0.0000893
50.21,522.288,0.0130000,0.1130000,-0.0001494
50.44,524.588,0.0130000,0.1130000,0.0003908
50.68,526.889,0.0130000,0.1130000,0.0002527
50.91,529.189,0.0130000,0.1130000,-0.0002425
51.14,531.49,0.0130000,0.1140000,-0.0004222
51.36,533.79,0.0130000,0.1130000,-0.0000421
51.59,536.09,0.0130000,0.1130000,0.0002470
51.83,538.391,0.0130000,0.1130000,-0.0002801
52.06,540.691,0.0130000,0.1130000,0.0004472
52.29,542.992,0.0130000,0.1130000,0.0001515
52.51,545.292,0.0130000,0.1130000,-0.0004951
52.74,547.592,0.0130000,0.1120000,0.0000841
52.98,549.893,0.0130000,0.1120000,0.0001865
53.21,552.193,0.0120000,0.1120000,-0.0004699
53.43,554.494,0.0120000,0.1110000,-0.0001392
53.66,556.794,0.0120000,0.1100000,-0.0008700
53.89,559.094,0.0120000,0.1100000,0.0001979
54.12,561.395,0.0120000,0.1090000,-0.0004367
54.35,563.695,0.0120000,0.1080000,-0.0004979
54.58,565.996,0.0120000,0.1070000,-0.0000792
54.81,568.296,0.0120000,0.1060000,-0.0005409
55.04,570.597,0.0120000,0.1050000,-0.0001119
55.27,572.897,0.0120000,0.1050000,-0.0007813
55.5,575.197,0.0120000,0.1040000,-0.0001423
55.73,577.498,0.0120000,0.1030000,-0.0006164
55.96,579.798,0.0120000,0.1030000,0.0000378
56.19,582.099,0.0110000,0.1020000,-0.0002625
56.42,584.399,0.0110000,0.1020000,0.0000266
56.65,586.699,0.0110000,0.1010000,-0.0002929
56.88,589,0.0110000,0.1010000,0.0002571
56.98,590,0.0110000,0.1010000,-0.0003393