File: R/rHDPE_App/app/www/Output/TGA/Condensed_Data/Resin15_1__1.csv
0.6800000,30,16.097,100.011,0.0102764
0.9700000,32.2004,16.099,100.019,0.0065026
1.23,34.4008,16.1,100.026,-0.0002111
1.48,36.6012,16.101,100.031,0.0013659
1.72,38.8016,16.101,100.035,0.0029103
1.96,41.002,16.102,100.039,0.0006803
2.19,43.2024,16.102,100.042,0.0012030
2.42,45.4028,16.103,100.045,0.0020050
2.65,47.6031,16.103,100.048,0.0011893
2.88,49.8035,16.104,100.05,0.0009458
3.1,52.0039,16.104,100.053,0.0010809
3.33,54.2043,16.105,100.056,0.0014990
3.55,56.4047,16.105,100.058,0.0006971
3.78,58.6051,16.105,100.061,0.0012074
4,60.8055,16.106,100.064,0.0009718
4.22,63.0059,16.106,100.066,0.0012918
4.44,65.2063,16.107,100.069,0.0013842
4.66,67.4067,16.107,100.071,0.0008757
4.89,69.6071,16.107,100.073,0.0007829
5.11,71.8075,16.108,100.075,0.0012884
5.33,74.0079,16.108,100.077,0.0008729
5.55,76.2083,16.108,100.08,0.0011029
5.77,78.4086,16.109,100.082,0.0009181
5.99,80.609,16.109,100.085,0.0011006
6.21,82.8094,16.11,100.086,0.0003208
6.43,85.0098,16.11,100.088,0.0006876
6.65,87.2102,16.11,100.089,0.0007794
6.87,89.4106,16.11,100.091,0.0009134
7.09,91.611,16.111,100.092,0.0007327
7.31,93.8114,16.111,100.094,0.0006872
7.53,96.0118,16.111,100.096,0.0013788
7.75,98.2122,16.111,100.097,0.0005958
7.97,100.413,16.112,100.099,0.0005037
8.19,102.613,16.112,100.1,0.0010551
8.41,104.813,16.112,100.102,0.0005001
8.63,107.014,16.112,100.103,0.0004571
8.85,109.214,16.112,100.104,0.0005080
9.08,111.415,16.112,100.105,0.0005986
9.3,113.615,16.113,100.106,0.0004142
9.52,115.815,16.113,100.107,0.0009222
9.74,118.016,16.113,100.108,-0.0000455
9.96,120.216,16.113,100.109,0.0002741
10.18,122.417,16.113,100.11,0.0005939
10.4,124.617,16.113,100.11,0.0004571
10.62,126.817,16.113,100.111,0.0003202
10.83,129.018,16.114,100.111,0.0004107
11.05,131.218,16.114,100.112,0.0003645
11.27,133.418,16.114,100.112,0.0001374
11.5,135.619,16.114,100.113,0.0002293
11.72,137.819,16.114,100.113,0.0000921
11.94,140.02,16.114,100.114,0.0000000
12.16,142.22,16.114,100.115,0.0000918
12.38,144.42,16.114,100.115,0.0008199
12.6,146.621,16.114,100.116,0.0003185
12.82,148.821,16.114,100.117,0.0000917
13.04,151.022,16.115,100.118,0.0000912
13.25,153.222,16.115,100.118,0.0001823
13.48,155.422,16.115,100.118,-0.0001351
13.69,157.623,16.115,100.118,-0.0006452
13.92,159.823,16.114,100.116,-0.0010688
14.14,162.024,16.114,100.114,-0.0015164
14.36,164.224,16.113,100.111,-0.0009135
14.58,166.424,16.113,100.108,-0.0010476
14.8,168.625,16.113,100.105,-0.0013745
15.02,170.825,16.112,100.104,-0.0009230
15.25,173.026,16.112,100.103,-0.0007119
15.47,175.226,16.112,100.103,0.0003245
15.69,177.426,16.112,100.102,-0.0006334
15.9,179.627,16.112,100.101,-0.0006801
16.13,181.827,16.112,100.1,-0.0006771
16.34,184.028,16.112,100.099,-0.0005871
16.56,186.228,16.112,100.099,-0.0003636
16.78,188.428,16.111,100.098,-0.0009097
17,190.629,16.111,100.097,-0.0002723
17.22,192.829,16.111,100.096,-0.0003680
17.43,195.029,16.111,100.095,-0.0002736
17.66,197.23,16.111,100.095,-0.0000917
17.88,199.43,16.111,100.094,-0.0001381
18.1,201.631,16.111,100.093,-0.0004146
18.32,203.831,16.111,100.092,-0.0003703
18.54,206.031,16.11,100.092,0.0002764
18.76,208.232,16.11,100.091,-0.0005043
18.98,210.432,16.11,100.09,-0.0002796
19.2,212.633,16.11,100.089,-0.0004853
19.42,214.833,16.11,100.087,-0.0005095
19.64,217.033,16.11,100.086,0.0000917
19.86,219.234,16.109,100.085,-0.0004551
20.08,221.434,16.109,100.084,-0.0009174
20.3,223.635,16.109,100.083,-0.0005949
20.52,225.835,16.109,100.081,-0.0006726
20.74,228.035,16.108,100.08,-0.0005163
20.96,230.236,16.108,100.079,-0.0002769
21.18,232.436,16.108,100.078,-0.0004099
21.4,234.637,16.108,100.076,-0.0002755
21.62,236.837,16.108,100.075,-0.0005033
21.84,239.037,16.107,100.073,-0.0004520
22.06,241.238,16.107,100.072,-0.0005013
22.28,243.438,16.107,100.07,-0.0007689
22.51,245.639,16.107,100.069,-0.0007744
22.74,247.839,16.106,100.067,-0.0005986
22.96,250.039,16.106,100.065,-0.0008806
23.2,252.24,16.106,100.063,-0.0004381
23.41,254.44,16.106,100.062,-0.0005759
23.62,256.64,16.105,100.06,-0.0009227
23.83,258.841,16.105,100.057,-0.0008470
24.04,261.041,16.105,100.055,-0.0009888
24.26,263.242,16.104,100.053,-0.0010423
24.48,265.442,16.104,100.051,-0.0011765
24.7,267.642,16.103,100.048,-0.0013103
24.92,269.843,16.103,100.045,-0.0010144
25.13,272.043,16.103,100.043,-0.0014706
25.35,274.244,16.102,100.041,-0.0011029
25.57,276.444,16.102,100.038,-0.0010821
25.79,278.644,16.101,100.035,-0.0011236
26.02,280.845,16.101,100.033,-0.0013531
26.23,283.045,16.101,100.03,-0.0010748
26.46,285.246,16.1,100.028,-0.0013250
26.69,287.446,16.1,100.025,-0.0019657
26.91,289.646,16.099,100.022,-0.0015586
27.13,291.847,16.099,100.018,-0.0015032
27.36,294.047,16.098,100.015,-0.0012629
27.58,296.248,16.098,100.012,-0.0016370
27.8,298.448,16.097,100.008,-0.0016981
28.02,300.648,16.096,100.005,-0.0013679
28.24,302.849,16.096,100.002,-0.0013773
28.46,305.049,16.095,99.998,-0.0014167
28.67,307.25,16.095,99.994,-0.0020365
28.89,309.45,16.094,99.99,-0.0020310
29.11,311.65,16.093,99.986,-0.0017393
29.33,313.851,16.093,99.982,-0.0021723
29.54,316.051,16.092,99.977,-0.0023071
29.77,318.251,16.091,99.973,-0.0021087
29.99,320.452,16.091,99.968,-0.0020556
30.21,322.652,16.09,99.964,-0.0024008
30.43,324.853,16.089,99.959,-0.0021391
30.66,327.053,16.088,99.955,-0.0024383
30.88,329.253,16.088,99.95,-0.0022455
31.1,331.454,16.087,99.945,-0.0021942
31.32,333.654,16.086,99.94,-0.0026417
31.54,335.855,16.085,99.934,-0.0024357
31.75,338.055,16.084,99.929,-0.0024098
31.97,340.255,16.083,99.924,-0.0021325
32.19,342.456,16.082,99.918,-0.0022727
32.41,344.656,16.082,99.913,-0.0026109
32.63,346.857,16.081,99.907,-0.0027906
32.84,349.057,16.08,99.901,-0.0025137
33.07,351.257,16.079,99.895,-0.0024255
33.29,353.458,16.078,99.889,-0.0029466
33.51,355.658,16.077,99.884,-0.0028846
33.73,357.859,16.076,99.877,-0.0025759
33.95,360.059,16.075,99.871,-0.0027788
34.17,362.259,16.074,99.865,-0.0028783
34.39,364.46,16.073,99.859,-0.0031736
34.61,366.66,16.072,99.853,-0.0025595
34.83,368.861,16.071,99.846,-0.0032225
35.06,371.061,16.07,99.838,-0.0028954
35.28,373.261,16.069,99.832,-0.0032715
35.49,375.462,16.067,99.825,-0.0033963
35.71,377.662,16.066,99.817,-0.0034501
35.93,379.862,16.065,99.81,-0.0031941
36.15,382.063,16.064,99.802,-0.0038730
36.38,384.263,16.062,99.793,-0.0038038
36.59,386.464,16.061,99.785,-0.0035390
36.81,388.664,16.06,99.777,-0.0038393
37.03,390.864,16.058,99.768,-0.0042936
37.25,393.065,16.057,99.758,-0.0040117
37.47,395.265,16.055,99.749,-0.0044041
37.69,397.466,16.054,99.739,-0.0049564
37.91,399.666,16.052,99.728,-0.0045580
38.13,401.866,16.05,99.717,-0.0050569
38.34,404.067,16.048,99.705,-0.0053068
38.56,406.267,16.046,99.693,-0.0058257
38.78,408.468,16.044,99.679,-0.0065715
39,410.668,16.042,99.665,-0.0065536
39.23,412.868,16.039,99.649,-0.0077491
39.45,415.069,16.036,99.631,-0.0081952
39.67,417.269,16.033,99.612,-0.0096332
39.89,419.47,16.03,99.59,-0.0105078
40.12,421.67,16.026,99.565,-0.0115714
40.34,423.87,16.021,99.538,-0.0135770
40.56,426.071,16.016,99.507,-0.0149281
40.78,428.271,16.011,99.474,-0.0156193
41,430.472,16.005,99.437,-0.0172319
41.22,432.672,15.999,99.398,-0.0184609
41.44,434.872,15.992,99.355,-0.0204174
41.66,437.073,15.984,99.307,-0.0230480
41.87,439.273,15.976,99.255,-0.0249864
42.09,441.473,15.966,99.197,-0.0272917
42.31,443.674,15.956,99.133,-0.0307587
42.53,445.874,15.944,99.061,-0.0350861
42.75,448.075,15.931,98.98,-0.0390768
42.97,450.275,15.917,98.89,-0.0431599
43.19,452.475,15.901,98.788,-0.0491268
43.41,454.676,15.882,98.675,-0.0534011
43.62,456.876,15.862,98.549,-0.0638425
43.84,459.077,15.836,98.385,-0.0785934
44.06,461.277,15.803,98.184,-0.1069620
44.28,463.477,15.763,97.936,-0.1186860
44.5,465.678,15.718,97.656,-0.1372950
44.71,467.878,15.664,97.32,-0.1668350
44.94,470.079,15.602,96.932,-0.1822270
45.16,472.279,15.532,96.498,-0.2156280
45.39,474.479,15.447,95.972,-0.2619360
45.61,476.68,15.347,95.351,-0.3011750
45.83,478.88,15.228,94.612,-0.3637820
46.05,481.081,15.085,93.721,-0.4442760
46.28,483.281,14.906,92.608,-0.5196380
46.5,485.481,14.701,91.333,-0.6912000
46.72,487.682,14.442,89.727,-0.7065590
46.93,489.882,14.158,87.961,-0.9371060
47.15,492.083,13.81,85.802,-1.11548
47.36,494.283,13.35,82.945,-1.28132
47.58,496.483,12.824,79.676,-1.65669
47.81,498.684,12.296,76.392,-1.564
48.03,500.884,11.63,72.255,-2.02445
48.25,503.084,10.911,67.791,-2.23118
48.47,505.285,10.076,62.602,-2.6376
48.7,507.485,9.124,56.685,-2.59733
48.91,509.686,8.095,50.293,-3.2032
49.13,511.886,6.967,43.286,-3.25056
49.35,514.086,5.742,35.677,-3.43415
49.57,516.287,4.469,27.763,-3.64709
49.79,518.487,3.204,19.907,-3.44059
50.01,520.688,2.029,12.608,-3.16378
50.23,522.888,1.074,6.671,-2.27131
50.45,525.088,0.4290000,2.664,-1.31971
50.67,527.289,0.1260000,0.7850000,-0.4432250
50.89,529.489,0.0510000,0.3160000,-0.0564633
51.11,531.69,0.0400000,0.2480000,-0.0218538
51.33,533.89,0.0350000,0.2170000,-0.0076820
51.55,536.09,0.0330000,0.2070000,-0.0028321
51.77,538.291,0.0330000,0.2030000,-0.0007537
51.99,540.491,0.0320000,0.2020000,-0.0005395
52.21,542.692,0.0320000,0.2010000,-0.0000342
52.43,544.892,0.0320000,0.2010000,-0.0005994
52.66,547.092,0.0320000,0.2010000,0.0000972
52.88,549.293,0.0320000,0.2010000,0.0000705
53.08,551.493,0.0320000,0.2010000,0.0002558
53.31,553.694,0.0320000,0.2010000,-0.0004352
53.54,555.894,0.0320000,0.2020000,-0.0002619
53.76,558.094,0.0320000,0.2020000,-0.0003412
53.97,560.295,0.0320000,0.2020000,0.0001473
54.19,562.495,0.0320000,0.2020000,0.0001290
54.41,564.695,0.0320000,0.2020000,0.0000311
54.63,566.896,0.0330000,0.2020000,0.0002251
54.85,569.096,0.0330000,0.2020000,0.0001607
55.07,571.297,0.0330000,0.2020000,0.0000193
55.29,573.497,0.0330000,0.2020000,0.0003516
55.52,575.697,0.0330000,0.2030000,-0.0002272
55.73,577.898,0.0330000,0.2020000,-0.0002680
55.95,580.098,0.0330000,0.2020000,-0.0003007
56.18,582.299,0.0330000,0.2020000,-0.0003633
56.39,584.499,0.0330000,0.2020000,0.0000506
56.61,586.699,0.0330000,0.2020000,0.0001610
56.83,588.9,0.0320000,0.2020000,-0.0002213
56.94,590,0.0320000,0.2020000,0.0000313