File: R/rHDPE_App/app/www/Output/TGA/Condensed_Data/Resin11_1__1.csv
0.6800000,30,10.997,100.014
0.9300000,31.9003,10.998,100.024
1.16,33.8007,10.999,100.032
1.38,35.701,10.999,100.039
1.59,37.6014,11,100.044
1.8,39.5017,11,100.049
2,41.402,11.001,100.053
2.2,43.3024,11.001,100.057
2.4,45.2027,11.002,100.06
2.6,47.1031,11.002,100.063
2.79,49.0034,11.002,100.067
2.99,50.9037,11.003,100.071
3.19,52.8041,11.003,100.074
3.38,54.7044,11.004,100.077
3.58,56.6048,11.004,100.08
3.77,58.5051,11.004,100.084
3.96,60.4054,11.005,100.087
4.15,62.3058,11.005,100.09
4.34,64.2061,11.005,100.093
4.54,66.1064,11.006,100.096
4.73,68.0068,11.006,100.099
4.92,69.9071,11.006,100.102
5.11,71.8075,11.007,100.104
5.3,73.7078,11.007,100.107
5.49,75.6081,11.007,100.11
5.68,77.5085,11.007,100.112
5.87,79.4088,11.008,100.114
6.06,81.3092,11.008,100.116
6.25,83.2095,11.008,100.118
6.44,85.1098,11.008,100.121
6.63,87.0102,11.009,100.123
6.82,88.9105,11.009,100.125
7.01,90.8109,11.009,100.127
7.2,92.7112,11.009,100.129
7.39,94.6115,11.009,100.131
7.58,96.5119,11.01,100.132
7.78,98.4122,11.01,100.134
7.96,100.313,11.01,100.135
8.15,102.213,11.01,100.137
8.35,104.113,11.01,100.138
8.53,106.014,11.01,100.139
8.72,107.914,11.01,100.139
8.91,109.814,11.01,100.14
9.1,111.715,11.011,100.14
9.29,113.615,11.011,100.141
9.48,115.515,11.011,100.142
9.67,117.416,11.011,100.142
9.86,119.316,11.011,100.144
10.05,121.216,11.011,100.144
10.24,123.117,11.011,100.143
10.43,125.017,11.011,100.142
10.62,126.917,11.011,100.142
10.81,128.818,11.011,100.142
11,130.718,11.011,100.142
11.19,132.618,11.011,100.142
11.38,134.519,11.011,100.142
11.57,136.419,11.011,100.143
11.76,138.319,11.011,100.143
11.95,140.22,11.011,100.142
12.15,142.12,11.011,100.143
12.33,144.02,11.011,100.143
12.53,145.921,11.011,100.143
12.71,147.821,11.011,100.143
12.9,149.721,11.011,100.144
13.1,151.622,11.011,100.144
13.28,153.522,11.011,100.142
13.47,155.422,11.01,100.138
13.66,157.323,11.01,100.134
13.85,159.223,11.009,100.13
14.04,161.123,11.009,100.127
14.23,163.024,11.009,100.124
14.42,164.924,11.009,100.122
14.61,166.824,11.008,100.121
14.8,168.725,11.008,100.119
14.99,170.625,11.008,100.117
15.18,172.525,11.008,100.115
15.37,174.426,11.008,100.113
15.56,176.326,11.007,100.111
15.75,178.226,11.007,100.109
15.94,180.127,11.007,100.107
16.13,182.027,11.007,100.105
16.33,183.927,11.006,100.103
16.52,185.828,11.006,100.101
16.71,187.728,11.006,100.098
16.9,189.629,11.006,100.096
17.09,191.529,11.005,100.094
17.28,193.429,11.005,100.091
17.48,195.33,11.005,100.089
17.68,197.23,11.005,100.087
17.86,199.13,11.004,100.084
18.04,201.031,11.004,100.08
18.23,202.931,11.004,100.077
18.42,204.831,11.003,100.074
18.61,206.732,11.003,100.07
18.8,208.632,11.002,100.066
18.99,210.532,11.002,100.063
19.18,212.433,11.002,100.059
19.37,214.333,11.001,100.055
19.56,216.233,11.001,100.052
19.75,218.134,11,100.048
19.94,220.034,11,100.044
20.13,221.934,11,100.04
20.32,223.835,10.999,100.036
20.51,225.735,10.999,100.032
20.7,227.635,10.998,100.028
20.89,229.536,10.998,100.023
21.09,231.436,10.997,100.019
21.28,233.336,10.997,100.015
21.47,235.237,10.996,100.01
21.66,237.137,10.996,100.005
21.85,239.037,10.995,100.001
22.04,240.938,10.995,99.996
22.23,242.838,10.994,99.991
22.41,244.738,10.994,99.985
22.59,246.639,10.993,99.98
22.79,248.539,10.992,99.974
22.98,250.439,10.992,99.968
23.17,252.34,10.991,99.962
23.36,254.24,10.99,99.956
23.55,256.14,10.99,99.95
23.74,258.041,10.989,99.943
23.94,259.941,10.988,99.937
24.12,261.841,10.987,99.93
24.31,263.742,10.987,99.923
24.51,265.642,10.986,99.917
24.69,267.542,10.985,99.909
24.89,269.443,10.984,99.901
25.08,271.343,10.983,99.894
25.27,273.243,10.983,99.887
25.46,275.144,10.982,99.879
25.65,277.044,10.981,99.871
25.84,278.944,10.98,99.863
26.03,280.845,10.979,99.855
26.22,282.745,10.978,99.847
26.41,284.645,10.977,99.838
26.6,286.546,10.976,99.83
26.79,288.446,10.976,99.822
26.98,290.346,10.975,99.813
27.16,292.247,10.974,99.804
27.34,294.147,10.973,99.796
27.53,296.048,10.972,99.786
27.73,297.948,10.971,99.777
27.92,299.848,10.97,99.768
28.11,301.749,10.969,99.758
28.3,303.649,10.967,99.748
28.49,305.549,10.966,99.739
28.69,307.45,10.965,99.729
28.88,309.35,10.964,99.719
29.07,311.25,10.963,99.708
29.26,313.151,10.962,99.697
29.45,315.051,10.961,99.687
29.63,316.951,10.959,99.676
29.83,318.852,10.958,99.665
30.02,320.752,10.957,99.654
30.21,322.652,10.956,99.642
30.4,324.553,10.955,99.631
30.59,326.453,10.953,99.62
30.78,328.353,10.952,99.608
30.97,330.254,10.951,99.596
31.16,332.154,10.949,99.584
31.35,334.054,10.948,99.572
31.54,335.955,10.947,99.56
31.73,337.855,10.945,99.548
31.92,339.755,10.944,99.536
32.11,341.656,10.943,99.523
32.3,343.556,10.941,99.512
32.49,345.456,10.94,99.499
32.68,347.357,10.939,99.486
32.88,349.257,10.937,99.473
33.07,351.157,10.936,99.46
33.27,353.058,10.934,99.446
33.46,354.958,10.933,99.434
33.64,356.858,10.931,99.421
33.83,358.759,10.93,99.408
34.02,360.659,10.929,99.395
34.2,362.559,10.927,99.381
34.39,364.46,10.926,99.368
34.57,366.36,10.924,99.355
34.76,368.26,10.923,99.341
34.95,370.161,10.921,99.327
35.14,372.061,10.92,99.313
35.34,373.961,10.918,99.299
35.53,375.862,10.916,99.285
35.72,377.762,10.915,99.27
35.91,379.662,10.913,99.256
36.1,381.563,10.912,99.241
36.3,383.463,10.91,99.226
36.48,385.363,10.908,99.211
36.67,387.264,10.907,99.196
36.86,389.164,10.905,99.18
37.05,391.064,10.903,99.164
37.24,392.965,10.901,99.147
37.43,394.865,10.9,99.13
37.62,396.765,10.898,99.113
37.81,398.666,10.896,99.096
38,400.566,10.894,99.078
38.19,402.467,10.892,99.06
38.38,404.367,10.89,99.042
38.57,406.267,10.888,99.022
38.76,408.168,10.886,99.003
38.95,410.068,10.883,98.983
39.13,411.968,10.881,98.963
39.32,413.869,10.879,98.941
39.52,415.769,10.876,98.918
39.71,417.669,10.874,98.896
39.9,419.57,10.871,98.871
40.09,421.47,10.868,98.845
40.29,423.37,10.865,98.816
40.48,425.271,10.862,98.785
40.67,427.171,10.858,98.752
40.85,429.071,10.854,98.718
41.04,430.972,10.85,98.68
41.22,432.872,10.846,98.641
41.41,434.772,10.841,98.597
41.6,436.673,10.836,98.552
41.79,438.573,10.83,98.501
41.99,440.473,10.824,98.445
42.18,442.374,10.818,98.385
42.37,444.274,10.81,98.319
42.56,446.174,10.802,98.247
42.75,448.075,10.793,98.165
42.94,449.975,10.784,98.076
43.13,451.875,10.773,97.976
43.32,453.776,10.76,97.864
43.51,455.676,10.746,97.736
43.7,457.576,10.73,97.593
43.89,459.477,10.713,97.43
44.08,461.377,10.69,97.226
44.27,463.277,10.661,96.957
44.46,465.178,10.625,96.632
44.65,467.078,10.586,96.281
44.84,468.978,10.542,95.878
45.03,470.879,10.49,95.407
45.22,472.779,10.43,94.864
45.41,474.679,10.362,94.246
45.6,476.58,10.282,93.511
45.79,478.48,10.188,92.66
45.98,480.38,10.08,91.681
46.17,482.281,9.955,90.539
46.36,484.181,9.805,89.174
46.55,486.081,9.639,87.665
46.74,487.982,9.436,85.823
46.93,489.882,9.22,83.856
47.12,491.782,8.976,81.64
47.31,493.683,8.692,79.051
47.5,495.583,8.368,76.111
47.7,497.483,8.004,72.8
47.88,499.384,7.608,69.197
48.06,501.284,7.167,65.185
48.25,503.184,6.658,60.555
48.44,505.085,6.092,55.405
48.63,506.985,5.495,49.978
48.83,508.886,4.864,44.242
49.02,510.786,4.196,38.163
49.21,512.686,3.474,31.595
49.4,514.587,2.821,25.654
49.59,516.487,2.166,19.701
49.78,518.387,1.568,14.262
49.97,520.288,1.041,9.465
50.16,522.188,0.6400000,5.822
50.35,524.088,0.3630000,3.303
50.54,525.989,0.2180000,1.981
50.72,527.889,0.1620000,1.475
50.91,529.789,0.1490000,1.351
51.11,531.69,0.1410000,1.281
51.3,533.59,0.1370000,1.248
51.49,535.49,0.1360000,1.233
51.68,537.391,0.1350000,1.226
51.87,539.291,0.1350000,1.223
52.06,541.191,0.1340000,1.221
52.25,543.092,0.1340000,1.22
52.44,544.992,0.1340000,1.219
52.63,546.892,0.1340000,1.218
52.82,548.793,0.1340000,1.217
53.01,550.693,0.1340000,1.216
53.19,552.593,0.1340000,1.215
53.39,554.494,0.1340000,1.215
53.58,556.394,0.1330000,1.213
53.77,558.294,0.1330000,1.212
53.96,560.195,0.1330000,1.211
54.16,562.095,0.1330000,1.21
54.35,563.995,0.1330000,1.209
54.54,565.896,0.1330000,1.209
54.73,567.796,0.1330000,1.208
54.91,569.696,0.1330000,1.207
55.1,571.597,0.1330000,1.206
55.29,573.497,0.1330000,1.205
55.48,575.397,0.1320000,1.204
55.66,577.298,0.1320000,1.203
55.86,579.198,0.1320000,1.202
56.05,581.098,0.1320000,1.2
56.24,582.999,0.1320000,1.199
56.44,584.899,0.1320000,1.197
56.63,586.799,0.1310000,1.195
56.81,588.7,0.1310000,1.193
56.95,590,0.1310000,1.192