File: R/rHDPE_App/app/www/Output/TGA/Condensed_Data/Resin3_1_.csv
0.6800000,30,11.942,100.02,0.0144255
0.9700000,32.2004,11.944,100.036,0.0063322
1.23,34.4008,11.945,100.045,0.0013028
1.48,36.6012,11.945,100.051,0.0025249
1.72,38.8016,11.946,100.056,0.0026174
1.95,41.002,11.947,100.06,0.0015099
2.19,43.2024,11.947,100.064,0.0025625
2.42,45.4028,11.948,100.069,0.0028327
2.65,47.6031,11.948,100.073,0.0030034
2.88,49.8035,11.949,100.077,0.0020841
3.1,52.0039,11.949,100.081,0.0022147
3.33,54.2043,11.95,100.085,0.0016409
3.55,56.4047,11.95,100.089,0.0013537
3.78,58.6051,11.95,100.093,0.0014893
4,60.8055,11.951,100.097,0.0027847
4.22,63.0059,11.951,100.101,0.0017586
4.45,65.2063,11.952,100.104,0.0011073
4.67,67.4067,11.952,100.108,0.0014738
4.89,69.6071,11.953,100.112,0.0008740
5.11,71.8075,11.953,100.115,0.0010116
5.33,74.0079,11.954,100.118,0.0004592
5.55,76.2083,11.954,100.121,0.0008254
5.77,78.4086,11.954,100.124,0.0011001
5.99,80.609,11.954,100.126,0.0001373
6.21,82.8094,11.955,100.128,0.0007331
6.43,85.0098,11.955,100.13,-0.0000915
6.65,87.2102,11.955,100.131,0.0008241
6.87,89.4106,11.955,100.134,0.0015103
7.09,91.611,11.955,100.135,0.0010528
7.31,93.8114,11.956,100.136,0.0009612
7.53,96.0118,11.956,100.138,0.0006871
7.75,98.2122,11.956,100.139,0.0004120
7.97,100.413,11.956,100.141,0.0006867
8.19,102.613,11.956,100.142,0.0008697
8.41,104.813,11.957,100.143,0.0012821
8.63,107.014,11.957,100.145,0.0003663
8.85,109.214,11.957,100.145,0.0002289
9.07,111.415,11.957,100.146,-0.0000918
9.29,113.615,11.957,100.147,0.0015118
9.51,115.815,11.957,100.148,0.0011892
9.73,118.016,11.957,100.15,0.0014640
9.95,120.216,11.958,100.153,0.0001372
10.17,122.417,11.958,100.154,-0.0000917
10.39,124.617,11.958,100.154,0.0001836
10.61,126.817,11.958,100.155,0.0006421
10.83,129.018,11.958,100.156,0.0003211
11.05,131.218,11.958,100.157,0.0008271
11.28,133.418,11.958,100.158,0.0007343
11.5,135.619,11.958,100.159,0.0000458
11.72,137.819,11.958,100.159,-0.0000915
11.93,140.02,11.958,100.159,-0.0007305
12.15,142.22,11.958,100.158,-0.0016398
12.37,144.42,11.958,100.155,-0.0019473
12.59,146.621,11.957,100.15,-0.0021261
12.81,148.821,11.957,100.144,-0.0017766
13.03,151.022,11.956,100.14,-0.0017452
13.25,153.222,11.956,100.136,-0.0017528
13.47,155.422,11.955,100.132,-0.0014747
13.69,157.623,11.955,100.13,-0.0018866
13.92,159.823,11.955,100.127,-0.0013790
14.13,162.024,11.954,100.124,-0.0010563
14.36,164.224,11.954,100.122,-0.0017431
14.58,166.424,11.954,100.119,-0.0010094
14.8,168.625,11.953,100.116,-0.0014213
15.02,170.825,11.953,100.113,-0.0013751
15.24,173.026,11.953,100.11,-0.0015128
15.46,175.226,11.952,100.107,-0.0012372
15.68,177.426,11.952,100.104,-0.0016030
15.9,179.627,11.951,100.101,-0.0018768
16.12,181.827,11.951,100.098,-0.0017867
16.34,184.028,11.951,100.095,-0.0014194
16.56,186.228,11.95,100.091,-0.0016937
16.78,188.428,11.95,100.088,-0.0009158
17,190.629,11.949,100.084,-0.0015114
17.22,192.829,11.949,100.081,-0.0012821
17.44,195.029,11.949,100.078,-0.0008702
17.66,197.23,11.948,100.074,-0.0010536
17.88,199.43,11.948,100.07,-0.0013294
18.1,201.631,11.947,100.067,-0.0008703
18.32,203.831,11.947,100.064,-0.0014652
18.54,206.031,11.947,100.06,-0.0018328
18.76,208.232,11.946,100.057,-0.0015584
18.98,210.432,11.946,100.053,-0.0015135
19.2,212.633,11.945,100.05,-0.0017423
19.42,214.833,11.945,100.046,-0.0016502
19.64,217.033,11.944,100.043,-0.0016941
19.86,219.234,11.944,100.039,-0.0017426
20.08,221.434,11.944,100.035,-0.0015129
20.3,223.635,11.943,100.032,-0.0015578
20.52,225.835,11.943,100.028,-0.0016040
20.74,228.035,11.942,100.024,-0.0010076
20.96,230.236,11.942,100.021,-0.0016957
21.18,232.436,11.941,100.017,-0.0016489
21.4,234.637,11.941,100.014,-0.0016036
21.62,236.837,11.941,100.01,-0.0018327
21.84,239.037,11.94,100.006,-0.0018787
22.07,241.238,11.94,100.003,-0.0019257
22.28,243.438,11.939,99.999,-0.0019725
22.51,245.639,11.939,99.995,-0.0013758
22.73,247.839,11.938,99.992,-0.0015114
22.94,250.039,11.938,99.988,-0.0019239
23.17,252.24,11.938,99.985,-0.0014210
23.39,254.44,11.937,99.981,-0.0014661
23.61,256.64,11.937,99.977,-0.0010077
23.83,258.841,11.936,99.974,-0.0016475
24.05,261.041,11.936,99.97,-0.0020630
24.27,263.242,11.935,99.967,-0.0019732
24.49,265.442,11.935,99.963,-0.0016046
24.71,267.642,11.935,99.96,-0.0015104
24.93,269.843,11.934,99.956,-0.0019699
25.15,272.043,11.934,99.952,-0.0012851
25.37,274.244,11.933,99.949,-0.0016034
25.59,276.444,11.933,99.945,-0.0016963
25.81,278.644,11.932,99.941,-0.0011905
26.03,280.845,11.932,99.937,-0.0019237
26.25,283.045,11.931,99.933,-0.0016926
26.47,285.246,11.931,99.929,-0.0021950
26.69,287.446,11.93,99.924,-0.0021501
26.91,289.646,11.93,99.919,-0.0021069
27.13,291.847,11.929,99.914,-0.0027951
27.35,294.047,11.929,99.909,-0.0019231
27.57,296.248,11.928,99.904,-0.0021062
27.79,298.448,11.927,99.899,-0.0021970
28.01,300.648,11.927,99.894,-0.0026099
28.23,302.849,11.926,99.889,-0.0026557
28.45,305.049,11.925,99.883,-0.0024738
28.67,307.25,11.925,99.878,-0.0023788
28.89,309.45,11.924,99.872,-0.0030688
29.11,311.65,11.923,99.866,-0.0028831
29.33,313.851,11.923,99.86,-0.0024280
29.55,316.051,11.922,99.854,-0.0021520
29.77,318.251,11.921,99.849,-0.0024716
29.99,320.452,11.921,99.842,-0.0029304
30.21,322.652,11.92,99.836,-0.0031593
30.43,324.853,11.919,99.83,-0.0026114
30.65,327.053,11.918,99.823,-0.0026572
30.87,329.253,11.917,99.817,-0.0033442
31.09,331.454,11.917,99.81,-0.0039356
31.31,333.654,11.916,99.803,-0.0032479
31.53,335.855,11.915,99.796,-0.0032509
31.75,338.055,11.914,99.789,-0.0037546
31.97,340.255,11.913,99.782,-0.0036617
32.19,342.456,11.912,99.774,-0.0034824
32.41,344.656,11.911,99.766,-0.0039407
32.63,346.857,11.91,99.758,-0.0034786
32.85,349.057,11.91,99.75,-0.0039835
33.07,351.257,11.909,99.741,-0.0048535
33.29,353.458,11.907,99.733,-0.0037546
33.51,355.658,11.906,99.724,-0.0042102
33.73,357.859,11.905,99.714,-0.0047203
33.95,360.059,11.904,99.705,-0.0048077
34.17,362.259,11.903,99.694,-0.0051712
34.39,364.46,11.902,99.684,-0.0046186
34.61,366.66,11.9,99.672,-0.0054516
34.83,368.861,11.899,99.66,-0.0056237
35.05,371.061,11.897,99.648,-0.0064536
35.27,373.261,11.896,99.634,-0.0066814
35.49,375.462,11.894,99.619,-0.0069241
35.71,377.662,11.892,99.603,-0.0079285
35.93,379.862,11.89,99.585,-0.0086034
36.15,382.063,11.888,99.566,-0.0089253
36.37,384.263,11.885,99.544,-0.0103711
36.59,386.464,11.882,99.52,-0.0119744
36.81,388.664,11.879,99.494,-0.0124885
37.03,390.864,11.875,99.464,-0.0141026
37.25,393.065,11.871,99.43,-0.0159174
37.47,395.265,11.867,99.393,-0.0173535
37.69,397.466,11.862,99.352,-0.0196886
37.91,399.666,11.856,99.306,-0.0225315
38.13,401.866,11.85,99.254,-0.0237310
38.35,404.067,11.844,99.197,-0.0273660
38.57,406.267,11.836,99.134,-0.0304945
38.79,408.468,11.828,99.064,-0.0333150
39.01,410.668,11.818,98.986,-0.0385976
39.23,412.868,11.807,98.893,-0.0452665
39.45,415.069,11.795,98.788,-0.0505235
39.67,417.269,11.781,98.671,-0.0561206
39.89,419.47,11.765,98.54,-0.0637470
40.11,421.67,11.747,98.392,-0.0719578
40.33,423.87,11.727,98.222,-0.0823723
40.55,426.071,11.703,98.023,-0.1033320
40.77,428.271,11.672,97.763,-0.1364050
40.99,430.472,11.634,97.443,-0.1633910
41.21,432.672,11.588,97.059,-0.1846890
41.43,434.872,11.537,96.627,-0.2212450
41.65,437.073,11.473,96.093,-0.2481680
41.87,439.273,11.402,95.495,-0.2880260
42.09,441.473,11.318,94.796,-0.3178360
42.31,443.674,11.222,93.994,-0.3857520
42.53,445.874,11.112,93.069,-0.4631130
42.75,448.075,10.978,91.95,-0.5209140
42.97,450.275,10.825,90.662,-0.6081350
43.19,452.475,10.64,89.12,-0.7184980
43.41,454.676,10.42,87.275,-0.8847990
43.63,456.876,10.152,85.031,-1.08421
43.85,459.077,9.831,82.338,-1.33887
44.07,461.277,9.448,79.13,-1.62173
44.29,463.477,8.991,75.307,-1.90747
44.51,465.678,8.455,70.819,-2.25771
44.73,467.878,7.831,65.586,-2.54167
44.96,470.079,7.112,59.568,-2.84667
45.18,472.279,6.302,52.783,-3.17353
45.39,474.479,5.409,45.303,-3.50314
45.61,476.68,4.46,37.357,-3.67557
45.84,478.88,3.468,29.044,-3.74607
46.05,481.081,2.516,21.074,-3.47126
46.27,483.281,1.645,13.78,-3.01786
46.49,485.481,0.9450000,7.916,-2.20866
46.71,487.682,0.4830000,4.041,-1.28434
46.93,489.882,0.2730000,2.288,-0.4081630
47.14,492.083,0.2210000,1.854,-0.0534789
47.37,494.283,0.2100000,1.76,-0.0318612
47.59,496.483,0.2050000,1.716,-0.0115590
47.81,498.684,0.2030000,1.7,-0.0037191
48.03,500.884,0.2020000,1.695,-0.0013808
48.25,503.084,0.2020000,1.694,-0.0002878
48.47,505.285,0.2020000,1.693,-0.0002732
48.69,507.485,0.2020000,1.693,0.0002544
48.91,509.686,0.2020000,1.694,-0.0001035
49.13,511.886,0.2020000,1.694,0.0000064
49.35,514.086,0.2020000,1.694,0.0003426
49.57,516.287,0.2020000,1.695,0.0000722
49.79,518.487,0.2020000,1.695,0.0005509
50.01,520.688,0.2020000,1.696,-0.0002740
50.23,522.888,0.2020000,1.696,0.0000207
50.45,525.088,0.2030000,1.696,0.0001722
50.67,527.289,0.2030000,1.696,-0.0001729
50.89,529.489,0.2030000,1.697,0.0001801
51.11,531.69,0.2030000,1.697,0.0004038
51.33,533.89,0.2030000,1.697,0.0005103
51.55,536.09,0.2030000,1.697,0.0005989
51.77,538.291,0.2030000,1.697,0.0003878
51.99,540.491,0.2030000,1.697,-0.0000250
52.21,542.692,0.2030000,1.697,-0.0000129
52.43,544.892,0.2030000,1.697,0.0002139
52.65,547.092,0.2030000,1.697,-0.0001834
52.87,549.293,0.2030000,1.697,-0.0000582
53.09,551.493,0.2030000,1.697,-0.0004070
53.31,553.694,0.2030000,1.698,-0.0002150
53.53,555.894,0.2030000,1.698,-0.0001913
53.75,558.094,0.2030000,1.698,0.0001455
53.97,560.295,0.2030000,1.698,0.0008621
54.19,562.495,0.2030000,1.699,0.0000723
54.41,564.695,0.2030000,1.699,-0.0002576
54.63,566.896,0.2030000,1.699,-0.0001795
54.85,569.096,0.2030000,1.699,0.0003034
55.07,571.297,0.2030000,1.699,-0.0002940
55.29,573.497,0.2030000,1.699,0.0001058
55.51,575.697,0.2030000,1.699,-0.0001987
55.73,577.898,0.2030000,1.699,-0.0000114
55.95,580.098,0.2030000,1.699,0.0002794
56.17,582.299,0.2030000,1.699,0.0003055
56.39,584.499,0.2030000,1.698,0.0004178
56.61,586.699,0.2030000,1.698,0.0000558
56.83,588.9,0.2030000,1.698,0.0004858
56.94,590,0.2030000,1.698,-0.0004356