File: R/rHDPE_App/app/www/Output/TGA/Condensed_Data/Resin7_1_.csv
1.05,30,12.234,100.035,0.0082308
1.31,32.2004,12.235,100.042,0.0048175
1.56,34.4008,12.235,100.047,0.0036575
1.79,36.6012,12.236,100.051,0.0014688
2.03,38.8016,12.236,100.055,0.0009204
2.26,41.002,12.237,100.057,0.0009108
2.49,43.2024,12.237,100.06,0.0016183
2.72,45.4028,12.237,100.063,0.0010399
2.94,47.6031,12.238,100.066,0.0013160
3.17,49.8035,12.238,100.068,0.0012676
3.39,52.0039,12.238,100.071,0.0007924
3.62,54.2043,12.239,100.074,0.0012994
3.84,56.4047,12.239,100.077,0.0008819
4.06,58.6051,12.239,100.079,0.0012492
4.29,60.8055,12.24,100.082,0.0006928
4.51,63.0059,12.24,100.084,0.0011065
4.73,65.2063,12.24,100.086,0.0006902
4.95,67.4067,12.24,100.088,0.0010156
5.17,69.6071,12.241,100.091,0.0009208
5.39,71.8075,12.241,100.093,0.0011505
5.61,74.0079,12.241,100.095,0.0005970
5.84,76.2083,12.241,100.097,0.0008715
6.05,78.4086,12.242,100.099,0.0004123
6.28,80.609,12.242,100.101,0.0005960
6.5,82.8094,12.242,100.102,0.0005505
6.72,85.0098,12.242,100.104,0.0009156
6.94,87.2102,12.242,100.105,0.0010538
7.16,89.4106,12.243,100.107,0.0011919
7.38,91.611,12.243,100.109,0.0004589
7.6,93.8114,12.243,100.109,0.0003187
7.82,96.0118,12.243,100.11,0.0005940
8.04,98.2122,12.243,100.111,0.0002289
8.26,100.413,12.243,100.111,0.0004127
8.48,102.613,12.243,100.112,0.0004595
8.7,104.813,12.243,100.113,0.0001852
8.92,107.014,12.243,100.114,0.0006840
9.14,109.214,12.244,100.114,0.0004096
9.36,111.415,12.244,100.115,0.0002282
9.58,113.615,12.244,100.114,-0.0001829
9.8,115.815,12.244,100.114,-0.0003198
10.02,118.016,12.244,100.114,-0.0001372
10.24,120.216,12.243,100.114,-0.0008712
10.46,122.417,12.243,100.113,0.0000912
10.68,124.617,12.243,100.113,0.0002292
10.9,126.817,12.243,100.112,-0.0005028
11.12,129.018,12.243,100.111,-0.0006406
11.34,131.218,12.243,100.111,-0.0006427
11.56,133.418,12.243,100.11,-0.0003680
11.78,135.619,12.243,100.109,-0.0006394
12,137.819,12.243,100.108,-0.0002327
12.22,140.02,12.243,100.107,-0.0004109
12.44,142.22,12.242,100.106,-0.0001830
12.66,144.42,12.242,100.105,-0.0004057
12.88,146.621,12.242,100.103,-0.0009128
13.1,148.821,12.242,100.102,-0.0004599
13.32,151.022,12.242,100.1,-0.0010065
13.54,153.222,12.241,100.096,-0.0024157
13.76,155.422,12.24,100.089,-0.0029515
13.98,157.623,12.24,100.083,-0.0027570
14.2,159.823,12.239,100.078,-0.0018868
14.42,162.024,12.239,100.074,-0.0010138
14.64,164.224,12.238,100.071,-0.0011478
14.86,166.424,12.238,100.069,-0.0009687
15.07,168.625,12.238,100.067,-0.0009909
15.3,170.825,12.237,100.065,-0.0010220
15.52,173.026,12.237,100.063,-0.0010698
15.74,175.226,12.237,100.061,-0.0006395
15.96,177.426,12.237,100.06,-0.0004159
16.18,179.627,12.237,100.058,-0.0002358
16.4,181.827,12.236,100.056,-0.0013148
16.62,184.028,12.236,100.054,-0.0006434
16.84,186.228,12.236,100.052,-0.0010122
17.06,188.428,12.236,100.05,-0.0008798
17.28,190.629,12.235,100.048,-0.0008092
17.51,192.829,12.235,100.046,-0.0012457
17.73,195.029,12.235,100.044,-0.0013300
17.95,197.23,12.235,100.041,-0.0016494
18.17,199.43,12.234,100.039,-0.0011583
18.39,201.631,12.234,100.036,-0.0009816
18.61,203.831,12.234,100.034,-0.0014760
18.83,206.031,12.233,100.031,-0.0013379
19.04,208.232,12.233,100.028,-0.0017471
19.27,210.432,12.233,100.024,-0.0016496
19.49,212.633,12.232,100.021,-0.0013643
19.71,214.833,12.232,100.018,-0.0012471
19.93,217.033,12.231,100.015,-0.0019774
20.15,219.234,12.231,100.012,-0.0020276
20.37,221.434,12.231,100.009,-0.0015332
20.59,223.635,12.23,100.005,-0.0016174
20.81,225.835,12.23,100.002,-0.0015259
21.03,228.035,12.229,99.998,-0.0012423
21.25,230.236,12.229,99.995,-0.0018894
21.47,232.436,12.228,99.991,-0.0015233
21.69,234.637,12.228,99.987,-0.0016211
21.92,236.837,12.227,99.983,-0.0019742
22.14,239.037,12.227,99.979,-0.0016990
22.36,241.238,12.226,99.975,-0.0018608
22.57,243.438,12.226,99.971,-0.0018787
22.79,245.639,12.225,99.967,-0.0020150
23.01,247.839,12.225,99.963,-0.0018741
23.23,250.039,12.224,99.958,-0.0015924
23.45,252.24,12.224,99.954,-0.0021779
23.67,254.44,12.223,99.95,-0.0022957
23.89,256.64,12.223,99.945,-0.0016465
24.11,258.841,12.222,99.941,-0.0022313
24.33,261.041,12.222,99.936,-0.0018711
24.55,263.242,12.221,99.931,-0.0022906
24.77,265.442,12.221,99.926,-0.0017338
25,267.642,12.22,99.922,-0.0020642
25.22,269.843,12.219,99.917,-0.0022401
25.43,272.043,12.219,99.912,-0.0025263
25.65,274.244,12.218,99.907,-0.0023874
25.87,276.444,12.218,99.902,-0.0019751
26.08,278.644,12.217,99.898,-0.0023521
26.31,280.845,12.216,99.893,-0.0023041
26.53,283.045,12.216,99.887,-0.0026763
26.75,285.246,12.215,99.882,-0.0020492
26.97,287.446,12.215,99.877,-0.0022542
27.19,289.646,12.214,99.872,-0.0025698
27.41,291.847,12.213,99.867,-0.0022873
27.63,294.047,12.213,99.862,-0.0022906
27.86,296.248,12.212,99.856,-0.0025806
28.07,298.448,12.211,99.851,-0.0022627
28.29,300.648,12.211,99.845,-0.0022283
28.51,302.849,12.21,99.839,-0.0028167
28.73,305.049,12.209,99.833,-0.0026553
28.95,307.25,12.208,99.827,-0.0030203
29.17,309.45,12.208,99.821,-0.0027576
29.39,311.65,12.207,99.815,-0.0031423
29.61,313.851,12.206,99.809,-0.0031886
29.84,316.051,12.205,99.802,-0.0029375
30.05,318.251,12.205,99.796,-0.0032757
30.27,320.452,12.204,99.789,-0.0033883
30.49,322.652,12.203,99.782,-0.0033488
30.71,324.853,12.202,99.776,-0.0030478
30.93,327.053,12.201,99.769,-0.0037767
31.15,329.253,12.2,99.761,-0.0029719
31.37,331.454,12.199,99.754,-0.0030426
31.59,333.654,12.199,99.746,-0.0034639
31.82,335.855,12.198,99.738,-0.0033672
32.04,338.055,12.197,99.73,-0.0034592
32.26,340.255,12.196,99.723,-0.0033655
32.48,342.456,12.195,99.715,-0.0037083
32.71,344.656,12.194,99.706,-0.0046825
32.94,346.857,12.192,99.697,-0.0037384
33.15,349.057,12.191,99.688,-0.0036486
33.36,351.257,12.19,99.679,-0.0043852
33.58,353.458,12.189,99.669,-0.0040724
33.8,355.658,12.188,99.659,-0.0045993
34.02,357.859,12.187,99.648,-0.0048472
34.24,360.059,12.185,99.637,-0.0049629
34.46,362.259,12.184,99.626,-0.0049188
34.68,364.46,12.182,99.614,-0.0052723
34.9,366.66,12.181,99.603,-0.0055231
35.12,368.861,12.179,99.59,-0.0057109
35.34,371.061,12.178,99.577,-0.0056808
35.56,373.261,12.176,99.564,-0.0063563
35.78,375.462,12.174,99.549,-0.0067642
36,377.662,12.173,99.534,-0.0072878
36.22,379.862,12.171,99.519,-0.0073718
36.44,382.063,12.169,99.502,-0.0077132
36.66,384.263,12.167,99.485,-0.0084916
36.88,386.464,12.164,99.466,-0.0089842
37.09,388.664,12.162,99.447,-0.0090302
37.31,390.864,12.159,99.426,-0.0095469
37.54,393.065,12.157,99.404,-0.0107834
37.76,395.265,12.154,99.38,-0.0106940
37.98,397.466,12.151,99.356,-0.0111222
38.19,399.666,12.148,99.331,-0.0115951
38.41,401.866,12.145,99.305,-0.0115636
38.63,404.067,12.141,99.279,-0.0129763
38.86,406.267,12.138,99.25,-0.0139535
39.08,408.468,12.134,99.219,-0.0138023
39.29,410.668,12.13,99.189,-0.0147577
39.51,412.868,12.126,99.156,-0.0161719
39.73,415.069,12.122,99.119,-0.0176946
39.95,417.269,12.117,99.08,-0.0185340
40.18,419.47,12.112,99.037,-0.0205140
40.41,421.67,12.106,98.989,-0.0203775
40.61,423.87,12.1,98.941,-0.0238011
40.83,426.071,12.093,98.886,-0.0261241
41.05,428.271,12.086,98.826,-0.0291934
41.27,430.472,12.078,98.758,-0.0325688
41.49,432.672,12.069,98.683,-0.0366483
41.71,434.872,12.058,98.599,-0.0404304
41.93,437.073,12.047,98.507,-0.0440040
42.15,439.273,12.034,98.402,-0.0507187
42.38,441.473,12.02,98.284,-0.0563251
42.59,443.674,12.004,98.154,-0.0624540
42.82,445.874,11.986,98.01,-0.0701270
43.04,448.075,11.966,97.845,-0.0791605
43.26,450.275,11.944,97.661,-0.0899595
43.48,452.475,11.916,97.432,-0.1133340
43.7,454.676,11.883,97.163,-0.1351950
43.92,456.876,11.846,96.865,-0.1451380
44.14,459.077,11.806,96.541,-0.1560130
44.36,461.277,11.763,96.186,-0.1718460
44.58,463.477,11.709,95.743,-0.1928260
44.8,465.678,11.657,95.318,-0.1850620
45.02,467.878,11.604,94.885,-0.2115630
45.24,470.079,11.548,94.427,-0.2184010
45.46,472.279,11.495,93.994,-0.1856930
45.69,474.479,11.436,93.515,-0.2631270
45.9,476.68,11.361,92.9,-0.2981620
46.12,478.88,11.267,92.132,-0.3998100
46.34,481.081,11.164,91.283,-0.4156380
46.56,483.281,11.034,90.227,-0.5214680
46.78,485.481,10.882,88.982,-0.6022170
47,487.682,10.695,87.455,-0.8144710
47.21,489.882,10.468,85.597,-0.8766970
47.43,492.083,10.205,83.448,-1.08409
47.65,494.283,9.886,80.835,-1.24577
47.87,496.483,9.519,77.834,-1.51036
48.09,498.684,9.094,74.358,-1.85106
48.31,500.884,8.578,70.142,-1.95215
48.53,503.084,7.972,65.19,-2.41331
48.75,505.285,7.297,59.667,-2.79467
48.97,507.485,6.528,53.376,-3.11996
49.19,509.686,5.683,46.466,-3.12117
49.4,511.886,4.778,39.067,-3.49844
49.62,514.086,3.839,31.39,-3.43117
49.85,516.287,2.885,23.591,-3.77575
50.07,518.487,1.989,16.261,-3.01456
50.29,520.688,1.241,10.148,-2.40314
50.51,522.888,0.6750000,5.522,-1.72387
50.73,525.088,0.3160000,2.581,-0.9024760
50.95,527.289,0.1610000,1.314,-0.3005230
51.17,529.489,0.1190000,0.9720000,-0.0478931
51.39,531.69,0.1070000,0.8750000,-0.0322329
51.61,533.89,0.1010000,0.8280000,-0.0130928
51.84,536.09,0.0990000,0.8110000,-0.0046787
52.06,538.291,0.0980000,0.8050000,-0.0017830
52.28,540.491,0.0980000,0.8030000,-0.0005417
52.5,542.692,0.0980000,0.8020000,-0.0004293
52.72,544.892,0.0980000,0.8020000,-0.0002139
52.94,547.092,0.0980000,0.8030000,0.0001193
53.15,549.293,0.0980000,0.8030000,-0.0001319
53.37,551.493,0.0980000,0.8030000,0.0004314
53.59,553.694,0.0980000,0.8030000,0.0001136
53.8,555.894,0.0980000,0.8030000,-0.0000087
54.02,558.094,0.0980000,0.8040000,0.0001783
54.24,560.295,0.0980000,0.8040000,0.0002625
54.46,562.495,0.0980000,0.8040000,-0.0001248
54.69,564.695,0.0980000,0.8040000,-0.0002403
54.91,566.896,0.0980000,0.8040000,0.0002291
55.13,569.096,0.0980000,0.8040000,0.0000681
55.35,571.297,0.0980000,0.8050000,0.0004643
55.57,573.497,0.0980000,0.8050000,-0.0001927
55.79,575.697,0.0980000,0.8040000,-0.0000336
56.01,577.898,0.0980000,0.8040000,-0.0006497
56.23,580.098,0.0980000,0.8040000,-0.0003607
56.45,582.299,0.0980000,0.8040000,0.0003291
56.67,584.499,0.0980000,0.8040000,0.0003287
56.89,586.699,0.0980000,0.8040000,0.0006185
57.11,588.9,0.0980000,0.8040000,-0.0002461
57.23,590,0.0980000,0.8040000,0.0001914