File: R/rHDPE_App/app/www/Output/TGA/Condensed_Data/Resin22_0__1.csv
0.8100000,30,19.467,100.015,0.0069921
1.08,32.2004,19.468,100.022,0.0036343
1.34,34.4008,19.469,100.026,0.0013846
1.58,36.6012,19.469,100.029,0.0001499
1.82,38.8016,19.47,100.032,0.0019152
2.05,41.002,19.47,100.035,0.0017963
2.29,43.2024,19.471,100.037,0.0019777
2.51,45.4028,19.471,100.04,0.0011011
2.74,47.6031,19.472,100.043,0.0009504
2.97,49.8035,19.472,100.045,0.0014640
3.2,52.0039,19.473,100.047,0.0008933
3.42,54.2043,19.473,100.05,0.0011233
3.65,56.4047,19.474,100.052,0.0009791
3.87,58.6051,19.474,100.055,0.0011617
4.09,60.8055,19.475,100.057,0.0008341
4.32,63.0059,19.475,100.059,0.0009244
4.54,65.2063,19.476,100.061,0.0009682
4.76,67.4067,19.476,100.063,0.0011505
4.98,69.6071,19.476,100.065,0.0005973
5.2,71.8075,19.477,100.067,0.0005511
5.42,74.0079,19.477,100.069,0.0007344
5.64,76.2083,19.477,100.07,0.0009167
5.86,78.4086,19.478,100.072,0.0008246
6.08,80.609,19.478,100.073,0.0004123
6.3,82.8094,19.478,100.075,0.0002289
6.53,85.0098,19.478,100.076,0.0008700
6.75,87.2102,19.479,100.077,0.0002290
6.96,89.4106,19.479,100.078,0.0003206
7.19,91.611,19.479,100.079,0.0005034
7.4,93.8114,19.479,100.08,0.0005951
7.63,96.0118,19.479,100.081,0.0005030
7.85,98.2122,19.479,100.081,0.0001370
8.06,100.413,19.479,100.081,0.0001371
8.29,102.613,19.479,100.081,-0.0000458
8.5,104.813,19.479,100.081,-0.0001377
8.73,107.014,19.48,100.082,0.0003667
8.95,109.214,19.48,100.082,-0.0000000
9.17,111.415,19.48,100.082,-0.0001375
9.39,113.615,19.48,100.082,-0.0002747
9.61,115.815,19.48,100.082,-0.0001374
9.83,118.016,19.48,100.082,-0.0001375
10.05,120.216,19.48,100.082,-0.0000917
10.27,122.417,19.479,100.081,-0.0001376
10.49,124.617,19.479,100.081,0.0000000
10.71,126.817,19.479,100.081,0.0004128
10.93,129.018,19.479,100.081,0.0003669
11.15,131.218,19.479,100.081,-0.0001381
11.37,133.418,19.479,100.081,0.0000000
11.59,135.619,19.479,100.081,0.0000000
11.81,137.819,19.479,100.08,-0.0004580
12.03,140.02,19.479,100.079,-0.0010043
12.25,142.22,19.479,100.077,-0.0010455
12.47,144.42,19.478,100.074,-0.0018559
12.68,146.621,19.477,100.07,-0.0023923
12.9,148.821,19.476,100.065,-0.0020881
13.12,151.022,19.475,100.061,-0.0019676
13.34,153.222,19.475,100.057,-0.0015643
13.56,155.422,19.474,100.052,-0.0016590
13.78,157.623,19.473,100.049,-0.0014750
14.01,159.823,19.472,100.045,-0.0019816
14.23,162.024,19.472,100.041,-0.0023452
14.45,164.224,19.471,100.038,-0.0019284
14.67,166.424,19.47,100.033,-0.0018340
14.89,168.625,19.469,100.029,-0.0019253
15.11,170.825,19.468,100.025,-0.0017883
15.33,173.026,19.468,100.02,-0.0022452
15.55,175.226,19.467,100.015,-0.0023831
15.77,177.426,19.466,100.01,-0.0024745
15.99,179.627,19.464,100.004,-0.0026116
16.21,181.827,19.463,99.999,-0.0027964
16.43,184.028,19.462,99.993,-0.0025225
16.65,186.228,19.461,99.987,-0.0024744
16.87,188.428,19.46,99.981,-0.0026574
17.09,190.629,19.459,99.974,-0.0031144
17.31,192.829,19.457,99.967,-0.0032057
17.53,195.029,19.456,99.961,-0.0033003
17.75,197.23,19.455,99.954,-0.0031602
17.97,199.43,19.453,99.946,-0.0031602
18.19,201.631,19.452,99.939,-0.0028862
18.42,203.831,19.45,99.932,-0.0035282
18.63,206.031,19.449,99.924,-0.0037112
18.86,208.232,19.447,99.916,-0.0041254
19.08,210.432,19.446,99.909,-0.0034388
19.29,212.633,19.444,99.901,-0.0032089
19.52,214.833,19.443,99.893,-0.0035757
19.74,217.033,19.441,99.885,-0.0036172
19.96,219.234,19.44,99.877,-0.0038021
20.18,221.434,19.438,99.869,-0.0028867
20.4,223.635,19.436,99.86,-0.0038039
20.62,225.835,19.435,99.852,-0.0037108
20.84,228.035,19.433,99.844,-0.0036623
21.06,230.236,19.432,99.836,-0.0036620
21.28,232.436,19.43,99.827,-0.0042136
21.5,234.637,19.428,99.819,-0.0037098
21.72,236.837,19.427,99.81,-0.0036623
21.94,239.037,19.425,99.802,-0.0039359
22.16,241.238,19.423,99.793,-0.0040311
22.38,243.438,19.422,99.785,-0.0038032
22.6,245.639,19.42,99.776,-0.0039882
22.82,247.839,19.418,99.768,-0.0039388
23.04,250.039,19.417,99.759,-0.0038021
23.26,252.24,19.415,99.75,-0.0038486
23.48,254.44,19.413,99.742,-0.0038021
23.7,256.64,19.412,99.733,-0.0034818
23.92,258.841,19.41,99.724,-0.0039400
24.14,261.041,19.408,99.715,-0.0042163
24.36,263.242,19.406,99.706,-0.0044021
24.58,265.442,19.405,99.697,-0.0042163
24.8,267.642,19.403,99.688,-0.0042605
25.02,269.843,19.401,99.679,-0.0044438
25.24,272.043,19.399,99.669,-0.0044455
25.46,274.244,19.397,99.66,-0.0042140
25.68,276.444,19.396,99.65,-0.0045354
25.9,278.644,19.394,99.641,-0.0040751
26.12,280.845,19.392,99.631,-0.0043522
26.34,283.045,19.39,99.622,-0.0040315
26.56,285.246,19.388,99.612,-0.0045330
26.78,287.446,19.386,99.603,-0.0043529
27,289.646,19.384,99.593,-0.0042582
27.22,291.847,19.383,99.583,-0.0043064
27.44,294.047,19.381,99.574,-0.0043996
27.66,296.248,19.379,99.564,-0.0042118
27.88,298.448,19.377,99.554,-0.0043939
28.1,300.648,19.375,99.544,-0.0046211
28.32,302.849,19.373,99.534,-0.0043932
28.54,305.049,19.371,99.524,-0.0045746
28.76,307.25,19.369,99.514,-0.0044414
28.98,309.45,19.367,99.504,-0.0046220
29.2,311.65,19.365,99.494,-0.0047646
29.42,313.851,19.363,99.483,-0.0050412
29.64,316.051,19.361,99.473,-0.0050394
29.86,318.251,19.359,99.462,-0.0050366
30.08,320.452,19.357,99.451,-0.0049908
30.31,322.652,19.355,99.44,-0.0050366
30.53,324.853,19.353,99.429,-0.0052198
30.74,327.053,19.35,99.418,-0.0050384
30.97,329.253,19.348,99.407,-0.0052169
31.18,331.454,19.346,99.395,-0.0051282
31.41,333.654,19.344,99.383,-0.0053620
31.63,335.855,19.341,99.372,-0.0055861
31.84,338.055,19.339,99.36,-0.0055830
32.07,340.255,19.337,99.348,-0.0054467
32.28,342.456,19.334,99.336,-0.0052675
32.51,344.656,19.332,99.323,-0.0055382
32.73,346.857,19.329,99.311,-0.0055382
32.94,349.057,19.327,99.298,-0.0060897
33.17,351.257,19.324,99.285,-0.0058608
33.38,353.458,19.322,99.272,-0.0060440
33.61,355.658,19.319,99.259,-0.0058608
33.83,357.859,19.317,99.246,-0.0059982
34.04,360.059,19.314,99.233,-0.0059982
34.26,362.259,19.312,99.219,-0.0058608
34.49,364.46,19.309,99.206,-0.0063563
34.71,366.66,19.307,99.193,-0.0060786
34.93,368.861,19.304,99.179,-0.0061745
35.14,371.061,19.301,99.165,-0.0066428
35.36,373.261,19.298,99.151,-0.0069635
35.59,375.462,19.295,99.135,-0.0076007
35.81,377.662,19.292,99.118,-0.0075536
36.03,379.862,19.289,99.101,-0.0082388
36.24,382.063,19.285,99.082,-0.0090037
36.46,384.263,19.281,99.061,-0.0094271
36.69,386.464,19.277,99.039,-0.0104319
36.91,388.664,19.272,99.015,-0.0114364
37.13,390.864,19.267,98.989,-0.0123124
37.34,393.065,19.261,98.961,-0.0135939
37.56,395.265,19.255,98.929,-0.0146466
37.79,397.466,19.249,98.896,-0.0157967
38.01,399.666,19.242,98.859,-0.0173929
38.23,401.866,19.234,98.818,-0.0198187
38.44,404.067,19.225,98.772,-0.0220992
38.66,406.267,19.215,98.723,-0.0235348
38.89,408.468,19.205,98.669,-0.0253112
39.11,410.668,19.193,98.61,-0.0287704
39.33,412.868,19.18,98.542,-0.0324455
39.54,415.069,19.165,98.467,-0.0363803
39.76,417.269,19.149,98.382,-0.0411710
39.99,419.47,19.13,98.284,-0.0486901
40.21,421.67,19.106,98.163,-0.0625000
40.43,423.87,19.075,98.004,-0.0779942
40.65,426.071,19.037,97.807,-0.1016470
40.86,428.271,18.992,97.576,-0.1152930
41.09,430.472,18.936,97.289,-0.1333360
41.31,432.672,18.873,96.967,-0.1528290
41.53,434.872,18.796,96.568,-0.2194760
41.75,437.073,18.693,96.04,-0.2754260
41.97,439.273,18.559,95.35,-0.3413460
42.19,441.473,18.391,94.49,-0.4528150
42.41,443.674,18.164,93.321,-0.5435370
42.63,445.874,17.916,92.049,-0.5991960
42.84,448.075,17.652,90.691,-0.6205660
43.06,450.275,17.367,89.227,-0.7199180
43.29,452.475,17.019,87.439,-0.8675880
43.51,454.676,16.596,85.266,-1.08763
43.73,456.876,16.086,82.646,-1.3627
43.95,459.077,15.468,79.473,-1.48039
44.17,461.277,14.749,75.778,-1.7429
44.39,463.477,13.926,71.55,-2.09578
44.61,465.678,12.963,66.6,-2.40161
44.83,467.878,11.9,61.138,-2.6989
45.05,470.079,10.705,54.999,-2.85615
45.27,472.279,9.412,48.355,-3.13336
45.49,474.479,8.036,41.287,-3.29427
45.71,476.68,6.617,33.997,-3.39128
45.93,478.88,5.195,26.691,-3.24847
46.14,481.081,3.857,19.816,-2.99313
46.36,483.281,2.66,13.668,-2.53074
46.58,485.481,1.708,8.778,-1.87867
46.8,487.682,1.054,5.416,-1.17743
47.02,489.882,0.6620000,3.401,-0.6382570
47.24,492.083,0.4700000,2.417,-0.2820700
47.46,494.283,0.3990000,2.049,-0.0797262
47.68,496.483,0.3810000,1.956,-0.0310218
47.9,498.684,0.3700000,1.903,-0.0164426
48.13,500.884,0.3660000,1.879,-0.0070108
48.34,503.084,0.3640000,1.868,-0.0027054
48.56,505.285,0.3630000,1.864,-0.0014416
48.79,507.485,0.3620000,1.862,-0.0008737
49.01,509.686,0.3620000,1.86,-0.0006886
49.23,511.886,0.3620000,1.859,-0.0001193
49.44,514.086,0.3620000,1.859,-0.0002887
49.66,516.287,0.3620000,1.858,-0.0003179
49.88,518.487,0.3620000,1.858,-0.0004699
50.1,520.688,0.3610000,1.857,-0.0000843
50.32,522.888,0.3610000,1.857,-0.0002014
50.54,525.088,0.3610000,1.856,-0.0003628
50.76,527.289,0.3610000,1.855,-0.0005746
50.98,529.489,0.3610000,1.855,-0.0001400
51.2,531.69,0.3610000,1.854,-0.0002837
51.42,533.89,0.3610000,1.853,-0.0004581
51.64,536.09,0.3610000,1.852,-0.0006068
51.86,538.291,0.3600000,1.851,-0.0003117
52.08,540.491,0.3600000,1.85,-0.0004361
52.3,542.692,0.3600000,1.849,-0.0007870
52.52,544.892,0.3600000,1.848,-0.0006806
52.74,547.092,0.3590000,1.847,-0.0006998
52.96,549.293,0.3590000,1.845,-0.0006476
53.18,551.493,0.3590000,1.844,-0.0007283
53.4,553.694,0.3590000,1.843,-0.0003530
53.62,555.894,0.3580000,1.842,-0.0003783
53.84,558.094,0.3580000,1.84,-0.0006478
54.06,560.295,0.3580000,1.839,-0.0005691
54.28,562.495,0.3580000,1.838,-0.0004267
54.5,564.695,0.3580000,1.837,-0.0007028
54.72,566.896,0.3570000,1.836,-0.0004139
54.94,569.096,0.3570000,1.834,-0.0005596
55.16,571.297,0.3570000,1.833,-0.0010077
55.38,573.497,0.3560000,1.831,-0.0005266
55.6,575.697,0.3560000,1.83,-0.0008522
55.82,577.898,0.3560000,1.828,-0.0010077
56.04,580.098,0.3550000,1.825,-0.0011648
56.26,582.299,0.3550000,1.823,-0.0010670
56.48,584.499,0.3540000,1.821,-0.0008469
56.7,586.699,0.3540000,1.819,-0.0009354
56.92,588.9,0.3540000,1.817,-0.0011073
57.03,590,0.3530000,1.815,-0.0012228