File: R/rHDPE_App/app/www/Output/TGA/Condensed_Data/Resin19_1_.csv
0.6800000,30,12.105,100.025,0.0168180
0.9900000,32.3004,12.106,100.039,0.0081170
1.26,34.6008,12.107,100.046,0.0058866
1.51,36.9012,12.108,100.052,0.0046142
1.76,39.2016,12.109,100.056,0.0027992
2.01,41.5021,12.109,100.06,0.0014089
2.25,43.8025,12.109,100.064,0.0017335
2.49,46.1029,12.11,100.068,0.0011967
2.73,48.4033,12.11,100.072,0.0022375
2.97,50.7037,12.111,100.076,0.0012799
3.21,53.0041,12.111,100.08,0.0023084
3.44,55.3045,12.112,100.084,0.0011257
3.68,57.6049,12.112,100.088,0.0007006
3.91,59.9053,12.113,100.092,0.0013965
4.15,62.2058,12.113,100.096,0.0010666
4.38,64.5062,12.114,100.099,0.0015262
4.61,66.8066,12.114,100.102,0.0011064
4.84,69.107,12.114,100.105,0.0005985
5.08,71.4074,12.115,100.108,0.0019788
5.3,73.7078,12.115,100.111,0.0023370
5.54,76.0082,12.115,100.114,0.0004578
5.77,78.3086,12.116,100.116,0.0004581
6,80.609,12.116,100.118,0.0010566
6.23,82.9094,12.116,100.12,0.0012367
6.46,85.2099,12.117,100.122,0.0005024
6.69,87.5103,12.117,100.124,0.0007314
6.92,89.8107,12.117,100.125,0.0009154
7.15,92.1111,12.117,100.127,0.0004575
7.38,94.4115,12.117,100.128,0.0010535
7.61,96.7119,12.117,100.129,-0.0001371
7.84,99.0123,12.117,100.13,-0.0007312
8.07,101.313,12.118,100.131,0.0005045
8.3,103.613,12.118,100.131,0.0001376
8.53,105.914,12.118,100.131,-0.0000457
8.76,108.214,12.118,100.131,-0.0008222
8.99,110.514,12.118,100.131,0.0000916
9.22,112.815,12.118,100.131,0.0002753
9.45,115.115,12.118,100.131,-0.0000913
9.68,117.416,12.117,100.13,-0.0043971
9.91,119.716,12.117,100.13,-0.0003190
10.14,122.016,12.117,100.129,-0.0009644
10.37,124.317,12.117,100.128,0.0011037
10.6,126.617,12.117,100.128,-0.0004131
10.83,128.918,12.117,100.129,0.0005506
11.06,131.218,12.117,100.13,0.0006878
11.29,133.518,12.118,100.131,0.0000914
11.52,135.819,12.118,100.131,0.0009158
11.75,138.119,12.118,100.131,-0.0002279
11.98,140.42,12.117,100.129,-0.0014106
12.21,142.72,12.117,100.125,-0.0021792
12.44,145.021,12.116,100.12,-0.0019548
12.67,147.321,12.116,100.116,-0.0012815
12.9,149.621,12.115,100.114,-0.0007351
13.13,151.922,12.115,100.112,-0.0003222
13.36,154.222,12.115,100.11,-0.0001841
13.59,156.523,12.115,100.108,-0.0009190
13.82,158.823,12.115,100.107,-0.0009168
14.05,161.123,12.115,100.106,-0.0004589
14.28,163.424,12.115,100.106,-0.0005505
14.51,165.724,12.114,100.105,-0.0009613
14.74,168.025,12.114,100.103,-0.0004590
14.97,170.325,12.114,100.102,-0.0004125
15.2,172.625,12.114,100.101,0.0000917
15.43,174.926,12.114,100.1,-0.0007796
15.66,177.226,12.114,100.098,-0.0006873
15.89,179.527,12.113,100.096,-0.0009147
16.12,181.827,12.113,100.095,-0.0008702
16.35,184.128,12.113,100.093,-0.0009166
16.58,186.428,12.113,100.092,-0.0009161
16.81,188.728,12.113,100.09,-0.0007319
17.04,191.029,12.112,100.089,-0.0014665
17.27,193.329,12.112,100.087,-0.0008251
17.5,195.63,12.112,100.085,-0.0005950
17.73,197.93,12.112,100.083,-0.0006412
17.97,200.23,12.112,100.081,-0.0003204
18.19,202.531,12.111,100.079,-0.0006876
18.43,204.831,12.111,100.078,-0.0003661
18.66,207.132,12.111,100.076,-0.0017857
18.88,209.432,12.111,100.073,-0.0008706
19.12,211.732,12.11,100.071,-0.0005500
19.35,214.033,12.11,100.07,-0.0002750
19.58,216.333,12.11,100.067,-0.0016081
19.81,218.634,12.11,100.065,-0.0002296
20.04,220.934,12.109,100.063,-0.0009629
20.27,223.235,12.109,100.061,-0.0010551
20.5,225.535,12.109,100.059,-0.0011468
20.73,227.835,12.109,100.056,-0.0003211
20.96,230.136,12.108,100.053,-0.0019634
21.19,232.436,12.108,100.051,-0.0017836
21.42,234.737,12.108,100.049,-0.0009173
21.65,237.037,12.107,100.046,-0.0014621
21.88,239.337,12.107,100.044,-0.0009161
22.11,241.638,12.107,100.041,-0.0020596
22.34,243.938,12.106,100.038,-0.0004577
22.57,246.239,12.106,100.035,-0.0009170
22.8,248.539,12.106,100.032,-0.0014164
23.03,250.839,12.105,100.029,-0.0017412
23.26,253.14,12.105,100.025,-0.0009161
23.49,255.44,12.104,100.022,-0.0008716
23.72,257.741,12.104,100.019,-0.0019223
23.95,260.041,12.104,100.015,-0.0018775
24.18,262.341,12.103,100.012,-0.0013278
24.41,264.642,12.103,100.008,-0.0019241
24.64,266.942,12.102,100.004,-0.0014683
24.87,269.243,12.102,100,-0.0016942
25.1,271.543,12.101,99.996,-0.0025632
25.33,273.844,12.101,99.992,-0.0019213
25.56,276.144,12.1,99.987,-0.0019313
25.79,278.444,12.1,99.983,-0.0017828
26.02,280.745,12.099,99.978,-0.0016957
26.25,283.045,12.098,99.973,-0.0025666
26.48,285.346,12.098,99.968,-0.0020586
26.71,287.646,12.097,99.963,-0.0013303
26.94,289.946,12.097,99.959,-0.0016469
27.18,292.247,12.096,99.953,-0.0033010
27.41,294.547,12.095,99.948,-0.0022923
27.63,296.848,12.095,99.943,-0.0028899
27.87,299.148,12.094,99.937,-0.0024277
28.09,301.448,12.093,99.931,-0.0024298
28.33,303.749,12.093,99.925,-0.0033045
28.56,306.049,12.092,99.917,-0.0031692
28.78,308.35,12.091,99.911,-0.0023810
29.02,310.65,12.09,99.905,-0.0023365
29.25,312.951,12.089,99.898,-0.0022923
29.48,315.251,12.089,99.892,-0.0029288
29.71,317.551,12.088,99.886,-0.0024766
29.94,319.852,12.087,99.879,-0.0032040
30.17,322.152,12.086,99.873,-0.0026990
30.4,324.453,12.086,99.866,-0.0028002
30.63,326.753,12.085,99.859,-0.0024267
30.86,329.053,12.084,99.853,-0.0022449
31.09,331.354,12.083,99.846,-0.0030660
31.32,333.654,12.082,99.839,-0.0027447
31.55,335.955,12.081,99.831,-0.0027508
31.78,338.255,12.08,99.824,-0.0037034
32.01,340.555,12.079,99.816,-0.0027513
32.24,342.856,12.078,99.808,-0.0033852
32.47,345.156,12.077,99.8,-0.0043973
32.7,347.457,12.076,99.791,-0.0035760
32.93,349.757,12.075,99.782,-0.0042071
33.16,352.058,12.074,99.772,-0.0043459
33.39,354.358,12.073,99.762,-0.0039355
33.62,356.658,12.072,99.752,-0.0050778
33.85,358.959,12.07,99.741,-0.0057287
34.08,361.259,12.069,99.73,-0.0049541
34.31,363.56,12.068,99.717,-0.0053046
34.54,365.86,12.066,99.704,-0.0058599
34.77,368.16,12.064,99.69,-0.0077839
35,370.461,12.062,99.674,-0.0070351
35.23,372.761,12.06,99.658,-0.0082569
35.46,375.062,12.058,99.639,-0.0088403
35.69,377.362,12.056,99.62,-0.0085232
35.92,379.662,12.053,99.597,-0.0098235
36.15,381.963,12.05,99.572,-0.0129830
36.38,384.263,12.047,99.544,-0.0128323
36.61,386.564,12.043,99.513,-0.0143368
36.84,388.864,12.039,99.478,-0.0173218
37.07,391.164,12.034,99.439,-0.0173000
37.3,393.465,12.029,99.396,-0.0199890
37.53,395.765,12.023,99.348,-0.0222324
37.76,398.066,12.016,99.295,-0.0243221
37.99,400.366,12.009,99.236,-0.0271371
38.22,402.667,12.001,99.17,-0.0317758
38.45,404.967,11.992,99.095,-0.0340638
38.68,407.267,11.982,99.012,-0.0390123
38.91,409.568,11.97,98.915,-0.0473245
39.14,411.868,11.957,98.801,-0.0530330
39.37,414.169,11.941,98.675,-0.0575164
39.6,416.469,11.925,98.537,-0.0630952
39.83,418.769,11.906,98.386,-0.0690097
40.06,421.07,11.886,98.22,-0.0768246
40.29,423.37,11.864,98.035,-0.0853804
40.52,425.671,11.838,97.819,-0.0949752
40.75,427.971,11.805,97.546,-0.1434190
40.98,430.271,11.766,97.225,-0.1595560
41.21,432.572,11.721,96.853,-0.1765380
41.44,434.872,11.668,96.419,-0.1995600
41.67,437.173,11.605,95.899,-0.2607890
41.9,439.473,11.522,95.212,-0.3432170
42.13,441.774,11.412,94.297,-0.4757600
42.36,444.074,11.272,93.141,-0.5432180
42.59,446.374,11.114,91.836,-0.6629740
42.82,448.675,10.929,90.311,-0.7268770
43.05,450.975,10.706,88.463,-0.9209250
43.28,453.276,10.431,86.193,-1.11498
43.51,455.576,10.103,83.484,-1.30904
43.74,457.876,9.7,80.156,-1.48494
43.97,460.177,9.218,76.168,-1.85024
44.2,462.477,8.645,71.434,-2.32341
44.43,464.778,7.939,65.601,-2.77848
44.66,467.078,7.021,58.013,-4.05717
44.89,469.378,5.918,48.9,-4.04116
45.13,471.679,4.725,39.047,-2.76515
45.34,473.979,3.773,31.179,-3.72968
45.58,476.28,2.673,22.091,-4.01349
45.81,478.58,1.647,13.609,-3.14356
46.04,480.881,0.8530000,7.047,-2.54779
46.26,483.181,0.3220000,2.658,-1.33441
46.49,485.481,0.0780000,0.6460000,-0.4823810
46.72,487.782,0.0250000,0.2050000,-0.0422777
46.95,490.082,0.0130000,0.1100000,-0.0296077
47.19,492.383,0.0080000,0.0680000,-0.0095706
47.42,494.683,0.0070000,0.0550000,-0.0034240
47.65,496.983,0.0060000,0.0510000,-0.0009542
47.88,499.284,0.0060000,0.0500000,-0.0002365
48.11,501.584,0.0060000,0.0500000,-0.0003765
48.34,503.885,0.0060000,0.0500000,0.0002477
48.57,506.185,0.0060000,0.0500000,0.0003776
48.8,508.485,0.0060000,0.0510000,0.0014144
49.03,510.786,0.0060000,0.0520000,-0.0007073
49.26,513.086,0.0060000,0.0520000,-0.0005646
49.49,515.387,0.0060000,0.0520000,0.0003247
49.72,517.687,0.0060000,0.0530000,0.0003414
49.95,519.987,0.0060000,0.0540000,-0.0003420
50.18,522.288,0.0070000,0.0540000,0.0001330
50.41,524.588,0.0070000,0.0540000,0.0001730
50.64,526.889,0.0070000,0.0550000,-0.0008521
50.87,529.189,0.0070000,0.0550000,0.0000493
51.1,531.49,0.0070000,0.0550000,-0.0006574
51.33,533.79,0.0060000,0.0540000,-0.0010891
51.56,536.09,0.0060000,0.0530000,-0.0021417
51.79,538.391,0.0060000,0.0530000,-0.0001016
52.02,540.691,0.0060000,0.0540000,0.0001522
52.25,542.992,0.0070000,0.0540000,-0.0005558
52.48,545.292,0.0070000,0.0540000,0.0001097
52.71,547.592,0.0070000,0.0550000,-0.0008902
52.94,549.893,0.0070000,0.0550000,0.0006408
53.17,552.193,0.0070000,0.0540000,0.0001364
53.4,554.494,0.0070000,0.0550000,0.0017787
53.63,556.794,0.0070000,0.0570000,0.0008618
53.86,559.094,0.0070000,0.0580000,0.0005594
54.09,561.395,0.0070000,0.0580000,-0.0004447
54.32,563.695,0.0070000,0.0570000,-0.0003952
54.55,565.996,0.0070000,0.0580000,-0.0001019
54.78,568.296,0.0070000,0.0580000,-0.0003144
55.01,570.597,0.0070000,0.0580000,0.0000030
55.24,572.897,0.0070000,0.0580000,-0.0006213
55.47,575.197,0.0070000,0.0580000,-0.0002440
55.7,577.498,0.0070000,0.0580000,-0.0001605
55.93,579.798,0.0070000,0.0580000,0.0008020
56.16,582.099,0.0070000,0.0580000,-0.0001763
56.39,584.399,0.0070000,0.0580000,0.0002296
56.61,586.699,0.0070000,0.0590000,0.0002903
56.84,589,0.0070000,0.0600000,0.0001977
56.94,590,0.0070000,0.0600000,0.0005249