File: R/rHDPE_App/app/www/Output/TGA/Condensed_Data/Resin10_0_.csv
0.6800000,30,15.047,100.01,0.0030600
0.9700000,32.2004,15.048,100.017,0.0008303
1.23,34.4008,15.049,100.02,0.0015578
1.48,36.6012,15.049,100.022,0.0009065
1.72,38.8016,15.049,100.025,0.0011861
1.95,41.002,15.05,100.027,0.0013650
2.18,43.2024,15.05,100.029,0.0009691
2.42,45.4028,15.05,100.031,0.0009643
2.65,47.6031,15.051,100.032,0.0005732
2.88,49.8035,15.051,100.034,0.0011385
3.1,52.0039,15.051,100.037,0.0006599
3.33,54.2043,15.052,100.038,0.0009383
3.55,56.4047,15.052,100.04,0.0008407
3.78,58.6051,15.052,100.042,0.0010240
4,60.8055,15.052,100.044,0.0006030
4.22,63.0059,15.053,100.045,0.0009714
4.45,65.2063,15.053,100.047,0.0010151
4.67,67.4067,15.053,100.048,0.0003686
4.89,69.6071,15.053,100.049,0.0003683
5.11,71.8075,15.053,100.051,0.0005513
5.33,74.0079,15.054,100.052,0.0004589
5.55,76.2083,15.054,100.053,0.0005042
5.77,78.4086,15.054,100.054,0.0003205
5.99,80.609,15.054,100.054,0.0001374
6.21,82.8094,15.054,100.055,0.0002287
6.43,85.0098,15.054,100.056,0.0003660
6.65,87.2102,15.054,100.057,0.0003661
6.87,89.4106,15.054,100.057,-0.0002746
7.09,91.611,15.054,100.057,0.0000915
7.31,93.8114,15.054,100.058,-0.0000457
7.53,96.0118,15.055,100.058,0.0002744
7.75,98.2122,15.055,100.058,-0.0000915
7.97,100.413,15.055,100.058,0.0003204
8.19,102.613,15.054,100.058,0.0001375
8.41,104.813,15.054,100.058,-0.0002287
8.63,107.014,15.054,100.057,-0.0000915
8.85,109.214,15.054,100.057,0.0003660
9.07,111.415,15.054,100.056,-0.0012010
9.29,113.615,15.054,100.055,-0.0009182
9.51,115.815,15.054,100.054,-0.0004110
9.73,118.016,15.054,100.054,-0.0003643
9.95,120.216,15.054,100.053,-0.0001829
10.17,122.417,15.054,100.053,0.0008236
10.39,124.617,15.054,100.052,0.0000459
10.61,126.817,15.053,100.051,-0.0001375
10.83,129.018,15.053,100.05,0.0005501
11.05,131.218,15.053,100.049,-0.0004126
11.27,133.418,15.053,100.048,-0.0000915
11.49,135.619,15.053,100.047,-0.0009151
11.71,137.819,15.052,100.044,-0.0013702
11.93,140.02,15.052,100.04,-0.0024579
12.15,142.22,15.051,100.034,-0.0026814
12.37,144.42,15.05,100.028,-0.0026035
12.59,146.621,15.049,100.023,-0.0020661
12.81,148.821,15.049,100.019,-0.0017004
13.03,151.022,15.048,100.015,-0.0018825
13.25,153.222,15.047,100.011,-0.0021566
13.47,155.422,15.047,100.007,-0.0022030
13.69,157.623,15.046,100.002,-0.0022033
13.91,159.823,15.045,99.998,-0.0022481
14.13,162.024,15.045,99.993,-0.0022934
14.35,164.224,15.044,99.988,-0.0023810
14.58,166.424,15.043,99.983,-0.0021553
14.8,168.625,15.042,99.978,-0.0031221
15.02,170.825,15.042,99.973,-0.0022915
15.23,173.026,15.041,99.968,-0.0016423
15.46,175.226,15.04,99.962,-0.0029902
15.68,177.426,15.039,99.955,-0.0031130
15.9,179.627,15.038,99.949,-0.0027892
16.12,181.827,15.037,99.943,-0.0027866
16.34,184.028,15.036,99.936,-0.0028865
16.56,186.228,15.035,99.93,-0.0029794
16.78,188.428,15.034,99.924,-0.0029296
17,190.629,15.033,99.917,-0.0029304
17.22,192.829,15.032,99.91,-0.0032518
17.44,195.029,15.031,99.903,-0.0030714
17.66,197.23,15.03,99.896,-0.0032072
17.88,199.43,15.029,99.889,-0.0027000
18.1,201.631,15.028,99.882,-0.0034394
18.32,203.831,15.027,99.875,-0.0030689
18.54,206.031,15.026,99.867,-0.0034388
18.76,208.232,15.025,99.86,-0.0035763
18.98,210.432,15.024,99.852,-0.0032479
19.2,212.633,15.022,99.844,-0.0035770
19.42,214.833,15.021,99.836,-0.0036630
19.64,217.033,15.02,99.829,-0.0035731
19.86,219.234,15.019,99.821,-0.0031164
20.08,221.434,15.018,99.813,-0.0038916
20.3,223.635,15.016,99.805,-0.0035767
20.52,225.835,15.015,99.797,-0.0038046
20.74,228.035,15.014,99.788,-0.0039341
20.96,230.236,15.013,99.78,-0.0035692
21.18,232.436,15.011,99.772,-0.0041674
21.4,234.637,15.01,99.763,-0.0040378
21.62,236.837,15.009,99.755,-0.0038980
21.84,239.037,15.008,99.746,-0.0035195
22.06,241.238,15.006,99.737,-0.0039871
22.28,243.438,15.005,99.729,-0.0039857
22.5,245.639,15.004,99.72,-0.0041182
22.72,247.839,15.002,99.711,-0.0038451
22.94,250.039,15.001,99.702,-0.0038955
23.16,252.24,15,99.693,-0.0039450
23.38,254.44,14.998,99.683,-0.0042093
23.6,256.64,14.997,99.674,-0.0042140
23.82,258.841,14.996,99.666,-0.0040271
24.04,261.041,14.994,99.657,-0.0042758
24.26,263.242,14.993,99.647,-0.0039689
24.48,265.442,14.991,99.638,-0.0046717
24.71,267.642,14.99,99.628,-0.0045914
24.93,269.843,14.988,99.618,-0.0043523
25.14,272.043,14.987,99.608,-0.0042637
25.37,274.244,14.985,99.598,-0.0048130
25.58,276.444,14.984,99.588,-0.0046729
25.81,278.644,14.982,99.577,-0.0049414
26.03,280.845,14.98,99.566,-0.0050384
26.24,283.045,14.979,99.555,-0.0050394
26.47,285.246,14.977,99.544,-0.0053881
26.68,287.446,14.976,99.533,-0.0048624
26.91,289.646,14.974,99.522,-0.0050223
27.13,291.847,14.972,99.51,-0.0051207
27.35,294.047,14.97,99.499,-0.0050454
27.57,296.248,14.969,99.487,-0.0053357
27.79,298.448,14.967,99.475,-0.0056288
28.01,300.648,14.965,99.462,-0.0055861
28.23,302.849,14.963,99.45,-0.0059491
28.45,305.049,14.961,99.437,-0.0061300
28.67,307.25,14.959,99.424,-0.0058925
28.88,309.45,14.957,99.41,-0.0065102
29.11,311.65,14.955,99.396,-0.0061903
29.33,313.851,14.953,99.382,-0.0066850
29.55,316.051,14.951,99.367,-0.0069139
29.77,318.251,14.948,99.351,-0.0073260
29.99,320.452,14.946,99.336,-0.0071860
30.21,322.652,14.943,99.319,-0.0076965
30.43,324.853,14.941,99.302,-0.0079285
30.65,327.053,14.938,99.284,-0.0079168
30.87,329.253,14.935,99.265,-0.0088828
31.09,331.454,14.932,99.245,-0.0089645
31.31,333.654,14.929,99.225,-0.0093407
31.53,335.855,14.926,99.204,-0.0099853
31.75,338.055,14.923,99.182,-0.0104587
31.97,340.255,14.919,99.159,-0.0110389
32.19,342.456,14.916,99.136,-0.0108577
32.41,344.656,14.912,99.112,-0.0110725
32.63,346.857,14.908,99.087,-0.0116758
32.85,349.057,14.904,99.061,-0.0122253
33.07,351.257,14.9,99.034,-0.0126054
33.29,353.458,14.896,99.005,-0.0127677
33.51,355.658,14.892,98.976,-0.0134826
33.73,357.859,14.887,98.945,-0.0142426
33.95,360.059,14.882,98.914,-0.0147166
34.17,362.259,14.877,98.881,-0.0151099
34.39,364.46,14.872,98.847,-0.0151724
34.61,366.66,14.867,98.812,-0.0152186
34.83,368.861,14.862,98.777,-0.0165685
35.05,371.061,14.856,98.739,-0.0173336
35.27,373.261,14.85,98.699,-0.0184744
35.49,375.462,14.844,98.657,-0.0195665
35.71,377.662,14.837,98.613,-0.0203371
35.93,379.862,14.83,98.567,-0.0220952
36.15,382.063,14.823,98.517,-0.0233059
36.37,384.263,14.815,98.463,-0.0249084
36.59,386.464,14.806,98.406,-0.0264867
36.81,388.664,14.797,98.345,-0.0287845
37.03,390.864,14.787,98.279,-0.0309524
37.25,393.065,14.776,98.209,-0.0326047
37.47,395.265,14.765,98.134,-0.0345428
37.69,397.466,14.753,98.056,-0.0367418
37.91,399.666,14.741,97.972,-0.0393989
38.13,401.866,14.727,97.881,-0.0432296
38.35,404.067,14.712,97.784,-0.0453839
38.57,406.267,14.697,97.681,-0.0496069
38.79,408.468,14.679,97.565,-0.0557033
39.01,410.668,14.66,97.436,-0.0614717
39.23,412.868,14.638,97.292,-0.0689529
39.45,415.069,14.613,97.124,-0.0864028
39.67,417.269,14.58,96.903,-0.1102830
39.89,419.47,14.54,96.64,-0.1280490
40.11,421.67,14.495,96.337,-0.1344500
40.33,423.87,14.441,95.981,-0.1698200
40.55,426.071,14.38,95.577,-0.1940690
40.77,428.271,14.309,95.107,-0.2169980
40.99,430.472,14.226,94.549,-0.2768650
41.21,432.672,14.128,93.899,-0.3086490
41.43,434.872,14.02,93.181,-0.3532040
41.65,437.073,13.896,92.358,-0.3970300
41.87,439.273,13.75,91.39,-0.4751050
42.09,441.473,13.581,90.267,-0.5602190
42.31,443.674,13.379,88.921,-0.6659190
42.53,445.874,13.132,87.283,-0.8528970
42.75,448.075,12.837,85.321,-0.9470560
42.97,450.275,12.485,82.978,-1.21234
43.19,452.475,12.057,80.139,-1.45403
43.41,454.676,11.556,76.808,-1.63413
43.63,456.876,10.966,72.883,-1.96374
43.85,459.077,10.27,68.259,-2.18099
44.07,461.277,9.483,63.028,-2.49011
44.29,463.477,8.594,57.121,-2.82363
44.51,465.678,7.604,50.54,-3.16202
44.73,467.878,6.516,43.308,-3.37109
44.95,470.079,5.366,35.667,-3.49524
45.17,472.279,4.203,27.936,-3.48786
45.39,474.479,3.091,20.544,-3.2381
45.61,476.68,2.093,13.91,-2.72342
45.83,478.88,1.308,8.696,-2.02089
46.05,481.081,0.7820000,5.197,-1.26583
46.26,483.281,0.4550000,3.026,-0.7274460
46.49,485.481,0.2810000,1.869,-0.3504750
46.71,487.682,0.2100000,1.398,-0.1019120
46.93,489.882,0.1930000,1.285,-0.0364867
47.15,492.083,0.1850000,1.228,-0.0163449
47.37,494.283,0.1810000,1.205,-0.0061673
47.59,496.483,0.1800000,1.196,-0.0026068
47.81,498.684,0.1790000,1.192,-0.0012507
48.03,500.884,0.1790000,1.189,-0.0009315
48.25,503.084,0.1790000,1.188,-0.0009592
48.47,505.285,0.1780000,1.186,-0.0006292
48.69,507.485,0.1780000,1.185,-0.0006568
48.91,509.686,0.1780000,1.183,-0.0007989
49.13,511.886,0.1780000,1.182,-0.0005968
49.35,514.086,0.1780000,1.181,-0.0005258
49.57,516.287,0.1770000,1.179,-0.0008361
49.79,518.487,0.1770000,1.177,-0.0008863
50.01,520.688,0.1770000,1.175,-0.0008784
50.23,522.888,0.1770000,1.173,-0.0007305
50.45,525.088,0.1760000,1.171,-0.0014022
50.67,527.289,0.1760000,1.169,-0.0007927
50.89,529.489,0.1750000,1.166,-0.0012921
51.11,531.69,0.1750000,1.163,-0.0016576
51.33,533.89,0.1740000,1.159,-0.0018379
51.55,536.09,0.1740000,1.155,-0.0016332
51.77,538.291,0.1730000,1.151,-0.0015003
51.99,540.491,0.1730000,1.148,-0.0018086
52.21,542.692,0.1720000,1.145,-0.0014069
52.43,544.892,0.1720000,1.142,-0.0014330
52.65,547.092,0.1710000,1.139,-0.0016877
52.87,549.293,0.1710000,1.136,-0.0013678
53.09,551.493,0.1700000,1.133,-0.0019152
53.31,553.694,0.1700000,1.129,-0.0016845
53.53,555.894,0.1690000,1.126,-0.0015389
53.75,558.094,0.1690000,1.122,-0.0016290
53.97,560.295,0.1680000,1.119,-0.0016160
54.19,562.495,0.1680000,1.116,-0.0015222
54.41,564.695,0.1670000,1.112,-0.0017817
54.63,566.896,0.1670000,1.108,-0.0019303
54.84,569.096,0.1660000,1.103,-0.0022268
55.06,571.297,0.1650000,1.097,-0.0024025
55.29,573.497,0.1640000,1.092,-0.0028396
55.51,575.697,0.1630000,1.085,-0.0030985
55.73,577.898,0.1620000,1.078,-0.0033824
55.94,580.098,0.1610000,1.07,-0.0036404
56.16,582.299,0.1600000,1.062,-0.0036583
56.39,584.499,0.1590000,1.054,-0.0037460
56.61,586.699,0.1570000,1.046,-0.0034045
56.83,588.9,0.1560000,1.038,-0.0033236
56.94,590,0.1560000,1.035,-0.0030635