File: R/rHDPE_App/app/www/Output/TGA/Condensed_Data/Resin16_0__1.csv
0.5300000,30,12.289,100.022,0.0002408
0.8700000,32.3004,12.291,100.037,0.0023967
1.14,34.6008,12.292,100.044,0.0001595
1.41,36.9012,12.293,100.049,0.0004587
1.66,39.2016,12.293,100.053,0.0032255
1.91,41.5021,12.294,100.056,0.0014649
2.15,43.8025,12.294,100.06,0.0018403
2.39,46.1029,12.295,100.063,0.0020666
2.63,48.4033,12.295,100.067,0.0007157
2.87,50.7037,12.295,100.071,0.0020370
3.11,53.0041,12.296,100.074,0.0011781
3.34,55.3045,12.296,100.078,0.0011737
3.58,57.6049,12.297,100.081,0.0013081
3.81,59.9053,12.297,100.084,0.0018132
4.05,62.2058,12.297,100.087,0.0013910
4.28,64.5062,12.298,100.091,0.0013875
4.51,66.8066,12.298,100.093,0.0011995
4.75,69.107,12.299,100.096,0.0011516
4.98,71.4074,12.299,100.098,0.0009654
5.21,73.7078,12.299,100.101,0.0012400
5.44,76.0082,12.299,100.103,0.0006418
5.67,78.3086,12.3,100.106,0.0009626
5.9,80.609,12.3,100.107,0.0012832
6.13,82.9094,12.3,100.109,0.0008241
6.36,85.2099,12.3,100.111,0.0008692
6.59,87.5103,12.301,100.113,0.0006405
6.82,89.8107,12.301,100.114,0.0007330
7.05,92.1111,12.301,100.116,0.0006402
7.28,94.4115,12.301,100.118,0.0006864
7.51,96.7119,12.301,100.119,0.0003203
7.74,99.0123,12.301,100.12,0.0003659
7.97,101.313,12.302,100.121,0.0008702
8.2,103.613,12.302,100.122,-0.0000458
8.43,105.914,12.302,100.122,0.0002747
8.66,108.214,12.302,100.123,-0.0000458
8.89,110.514,12.302,100.124,0.0002289
9.12,112.815,12.302,100.124,0.0001831
9.35,115.115,12.302,100.124,0.0004120
9.58,117.416,12.302,100.125,-0.0000458
9.81,119.716,12.302,100.125,0.0002749
10.04,122.016,12.302,100.126,0.0005042
10.27,124.317,12.302,100.126,0.0001375
10.5,126.617,12.302,100.127,0.0005501
10.73,128.918,12.302,100.128,0.0002752
10.96,131.218,12.303,100.129,0.0000917
11.19,133.518,12.303,100.129,-0.0001374
11.42,135.819,12.303,100.129,0.0000000
11.65,138.119,12.302,100.128,-0.0008208
11.88,140.42,12.302,100.124,-0.0022319
12.11,142.72,12.301,100.119,-0.0020064
12.34,145.021,12.301,100.115,-0.0017841
12.57,147.321,12.3,100.112,-0.0010080
12.8,149.621,12.3,100.109,-0.0013296
13.03,151.922,12.3,100.108,-0.0009636
13.26,154.222,12.3,100.106,-0.0006890
13.49,156.523,12.3,100.105,-0.0003209
13.72,158.823,12.299,100.103,-0.0005507
13.95,161.123,12.299,100.102,-0.0006873
14.18,163.424,12.299,100.1,-0.0004586
14.41,165.724,12.299,100.099,-0.0010083
14.64,168.025,12.299,100.097,-0.0007325
14.87,170.325,12.298,100.095,-0.0004582
15.1,172.625,12.298,100.094,-0.0010577
15.33,174.926,12.298,100.092,-0.0006851
15.56,177.226,12.298,100.09,-0.0008238
15.79,179.527,12.298,100.088,-0.0011921
16.02,181.827,12.297,100.087,-0.0009151
16.25,184.128,12.297,100.085,-0.0009619
16.48,186.428,12.297,100.083,-0.0009158
16.72,188.728,12.297,100.081,-0.0007814
16.95,191.029,12.296,100.079,-0.0009155
17.18,193.329,12.296,100.077,-0.0011439
17.41,195.63,12.296,100.075,-0.0006867
17.63,197.93,12.296,100.073,-0.0011933
17.87,200.23,12.295,100.071,-0.0006420
18.1,202.531,12.295,100.069,-0.0010510
18.33,204.831,12.295,100.067,-0.0007780
18.56,207.132,12.295,100.065,-0.0013315
18.79,209.432,12.294,100.063,-0.0011464
19.02,211.732,12.294,100.06,-0.0005952
19.25,214.033,12.294,100.058,-0.0006866
19.48,216.333,12.294,100.056,-0.0013288
19.71,218.634,12.293,100.053,-0.0011929
19.94,220.934,12.293,100.051,-0.0011922
20.17,223.235,12.293,100.048,-0.0012806
20.4,225.535,12.292,100.046,-0.0011454
20.63,227.835,12.292,100.043,-0.0017431
20.86,230.136,12.292,100.041,-0.0006403
21.09,232.436,12.291,100.038,-0.0009630
21.32,234.737,12.291,100.035,-0.0009172
21.55,237.037,12.291,100.032,-0.0015117
21.78,239.337,12.29,100.029,-0.0013751
22.01,241.638,12.29,100.025,-0.0015525
22.24,243.938,12.29,100.023,-0.0015103
22.47,246.239,12.289,100.019,-0.0014701
22.7,248.539,12.289,100.016,-0.0020145
22.93,250.839,12.288,100.012,-0.0014679
23.16,253.14,12.288,100.009,-0.0011457
23.39,255.44,12.287,100.005,-0.0017411
23.62,257.741,12.287,100.002,-0.0016034
23.85,260.041,12.286,99.998,-0.0019699
24.08,262.341,12.286,99.994,-0.0014639
24.31,264.642,12.285,99.99,-0.0019266
24.54,266.942,12.285,99.985,-0.0019242
24.77,269.243,12.284,99.981,-0.0023352
25,271.543,12.284,99.977,-0.0023318
25.23,273.844,12.283,99.972,-0.0022407
25.46,276.144,12.283,99.967,-0.0020616
25.69,278.444,12.282,99.962,-0.0023831
25.92,280.745,12.281,99.957,-0.0022885
26.15,283.045,12.281,99.951,-0.0018332
26.38,285.346,12.28,99.946,-0.0022885
26.61,287.646,12.279,99.94,-0.0030275
26.84,289.946,12.279,99.935,-0.0023736
27.07,292.247,12.278,99.929,-0.0024739
27.3,294.547,12.277,99.923,-0.0024312
27.53,296.848,12.276,99.916,-0.0027497
27.77,299.148,12.276,99.91,-0.0026066
27.99,301.448,12.275,99.904,-0.0026620
28.23,303.749,12.274,99.897,-0.0030197
28.46,306.049,12.273,99.891,-0.0030622
28.68,308.35,12.272,99.884,-0.0024712
28.92,310.65,12.272,99.877,-0.0029330
29.14,312.951,12.271,99.87,-0.0029707
29.38,315.251,12.27,99.863,-0.0028862
29.61,317.551,12.269,99.855,-0.0032081
29.83,319.852,12.268,99.848,-0.0038517
30.07,322.152,12.267,99.84,-0.0032949
30.3,324.453,12.266,99.832,-0.0037088
30.53,326.753,12.265,99.825,-0.0031136
30.76,329.053,12.264,99.817,-0.0037143
30.99,331.354,12.263,99.809,-0.0037122
31.22,333.654,12.262,99.8,-0.0038940
31.45,335.955,12.261,99.792,-0.0034360
31.68,338.255,12.26,99.784,-0.0036657
31.91,340.555,12.259,99.775,-0.0040751
32.14,342.856,12.258,99.767,-0.0033883
32.37,345.156,12.257,99.758,-0.0036650
32.6,347.457,12.256,99.749,-0.0039012
32.83,349.757,12.255,99.74,-0.0037796
33.06,352.058,12.254,99.73,-0.0038588
33.29,354.358,12.252,99.72,-0.0046644
33.52,356.658,12.251,99.71,-0.0046703
33.75,358.959,12.25,99.699,-0.0047136
33.98,361.259,12.248,99.687,-0.0051702
34.21,363.56,12.247,99.676,-0.0057266
34.44,365.86,12.245,99.663,-0.0054985
34.67,368.16,12.244,99.649,-0.0064419
34.9,370.461,12.242,99.634,-0.0066307
35.13,372.761,12.24,99.617,-0.0078368
35.36,375.062,12.237,99.598,-0.0083364
35.59,377.362,12.235,99.578,-0.0096031
35.82,379.662,12.232,99.555,-0.0105634
36.05,381.963,12.229,99.53,-0.0115928
36.28,384.263,12.225,99.501,-0.0131965
36.51,386.564,12.221,99.469,-0.0149212
36.74,388.864,12.217,99.433,-0.0168956
36.97,391.164,12.212,99.392,-0.0187661
37.2,393.465,12.206,99.345,-0.0212385
37.43,395.765,12.2,99.293,-0.0241980
37.66,398.066,12.193,99.233,-0.0271809
37.89,400.366,12.185,99.169,-0.0296980
38.12,402.667,12.176,99.098,-0.0318926
38.35,404.967,12.166,99.021,-0.0355769
38.58,407.267,12.156,98.934,-0.0393578
38.81,409.568,12.144,98.84,-0.0432122
39.04,411.868,12.131,98.735,-0.0479572
39.27,414.169,12.117,98.619,-0.0529541
39.5,416.469,12.101,98.49,-0.0590901
39.73,418.769,12.084,98.348,-0.0656478
39.96,421.07,12.064,98.186,-0.0747158
40.19,423.37,12.041,98.003,-0.0840656
40.42,425.671,12.015,97.789,-0.1149590
40.65,427.971,11.981,97.511,-0.1304030
40.88,430.271,11.94,97.179,-0.1572800
41.11,432.572,11.892,96.789,-0.1922400
41.34,434.872,11.833,96.303,-0.2382020
41.57,437.173,11.754,95.664,-0.3070820
41.8,439.473,11.655,94.861,-0.3933890
42.03,441.774,11.535,93.881,-0.4293570
42.26,444.074,11.387,92.679,-0.6171550
42.49,446.374,11.193,91.098,-0.7276280
42.72,448.675,10.963,89.226,-0.8812190
42.95,450.975,10.68,86.921,-1.14765
43.18,453.276,10.328,84.057,-1.40055
43.41,455.576,9.9,80.576,-1.66333
43.64,457.876,9.369,76.255,-2.09782
43.87,460.177,8.705,70.846,-2.59724
44.1,462.477,7.827,63.706,-3.48453
44.33,464.778,6.787,55.242,-3.77254
44.56,467.078,5.686,46.279,-3.93196
44.79,469.378,4.576,37.247,-3.95448
45.02,471.679,3.461,28.166,-3.74789
45.25,473.979,2.406,19.58,-3.62167
45.48,476.28,1.45,11.801,-3.06339
45.71,478.58,0.7000000,5.699,-2.1268
45.94,480.881,0.2470000,2.01,-1.09165
46.16,483.181,0.0630000,0.5110000,-0.2905300
46.39,485.481,0.0280000,0.2300000,-0.0458760
46.63,487.782,0.0180000,0.1430000,-0.0251602
46.86,490.082,0.0130000,0.1080000,-0.0081847
47.09,492.383,0.0120000,0.0970000,-0.0023615
47.32,494.683,0.0110000,0.0940000,-0.0006453
47.55,496.983,0.0110000,0.0930000,0.0002521
47.78,499.284,0.0110000,0.0930000,-0.0000258
48.01,501.584,0.0110000,0.0930000,0.0002238
48.24,503.885,0.0120000,0.0940000,0.0002446
48.46,506.185,0.0120000,0.0950000,0.0002172
48.69,508.485,0.0120000,0.0950000,-0.0000613
48.93,510.786,0.0120000,0.0950000,-0.0002418
49.16,513.086,0.0120000,0.0950000,0.0002767
49.39,515.387,0.0120000,0.0960000,0.0002412
49.61,517.687,0.0120000,0.0960000,0.0002627
49.84,519.987,0.0120000,0.0970000,-0.0000338
50.08,522.288,0.0120000,0.0970000,0.0002827
50.31,524.588,0.0120000,0.0970000,0.0001131
50.54,526.889,0.0120000,0.0980000,-0.0000884
50.76,529.189,0.0120000,0.0980000,0.0004866
50.99,531.49,0.0120000,0.0980000,-0.0001697
51.23,533.79,0.0120000,0.0980000,0.0003020
51.46,536.09,0.0120000,0.0990000,-0.0003864
51.69,538.391,0.0120000,0.0990000,0.0003303
51.91,540.691,0.0120000,0.0990000,0.0002740
52.14,542.992,0.0120000,0.0990000,0.0004083
52.38,545.292,0.0120000,0.0990000,-0.0000608
52.61,547.592,0.0120000,0.1000000,0.0000091
52.84,549.893,0.0120000,0.1000000,-0.0001792
53.06,552.193,0.0120000,0.1000000,0.0000067
53.29,554.494,0.0120000,0.1000000,0.0000125
53.53,556.794,0.0120000,0.1010000,0.0001337
53.75,559.094,0.0120000,0.1010000,0.0003845
53.98,561.395,0.0120000,0.1010000,0.0002246
54.21,563.695,0.0120000,0.1010000,-0.0001785
54.44,565.996,0.0120000,0.1010000,0.0002075
54.67,568.296,0.0120000,0.1010000,0.0000330
54.9,570.597,0.0120000,0.1010000,-0.0000197
55.13,572.897,0.0120000,0.1010000,0.0001039
55.36,575.197,0.0120000,0.1010000,0.0000586
55.59,577.498,0.0120000,0.1010000,0.0007261
55.82,579.798,0.0120000,0.1020000,0.0003101
56.05,582.099,0.0120000,0.1020000,0.0003064
56.28,584.399,0.0130000,0.1020000,0.0001435
56.51,586.699,0.0130000,0.1030000,0.0003440
56.74,589,0.0130000,0.1030000,0.0007494
56.84,590,0.0130000,0.1040000,0.0004155