File: R/rHDPE_App/app/www/Output/TGA/Condensed_Data/Resin16_1__1.csv
0.7400000,30,10.843,100.018,0.0048514
1.03,32.2004,10.845,100.029,-0.0003913
1.29,34.4008,10.846,100.038,0.0048193
1.53,36.6012,10.846,100.045,0.0054353
1.77,38.8016,10.847,100.05,0.0006399
2.01,41.002,10.847,100.055,0.0007281
2.24,43.2024,10.848,100.059,0.0011053
2.47,45.4028,10.848,100.063,0.0010019
2.7,47.6031,10.849,100.067,0.0026569
2.93,49.8035,10.849,100.071,0.0018416
3.15,52.0039,10.85,100.074,0.0015042
3.38,54.2043,10.85,100.078,0.0017301
3.6,56.4047,10.85,100.082,0.0020957
3.83,58.6051,10.851,100.086,0.0013460
4.05,60.8055,10.851,100.089,0.0014336
4.27,63.0059,10.852,100.093,0.0015703
4.49,65.2063,10.852,100.096,0.0017055
4.71,67.4067,10.852,100.099,0.0015666
4.94,69.6071,10.853,100.102,0.0016088
5.15,71.8075,10.853,100.105,0.0011028
5.38,74.0079,10.853,100.108,0.0013311
5.6,76.2083,10.854,100.111,0.0019302
5.82,78.4086,10.854,100.114,0.0011939
6.04,80.609,10.854,100.117,0.0011460
6.26,82.8094,10.854,100.119,0.0016961
6.48,85.0098,10.855,100.122,0.0017409
6.7,87.2102,10.855,100.125,0.0015332
6.93,89.4106,10.855,100.127,0.0010669
7.15,91.611,10.856,100.13,0.0009515
7.36,93.8114,10.856,100.132,0.0008644
7.58,96.0118,10.856,100.133,0.0007284
7.8,98.2122,10.856,100.135,0.0004112
8.02,100.413,10.856,100.137,0.0011147
8.24,102.613,10.856,100.138,0.0002755
8.46,104.813,10.857,100.14,0.0005001
8.68,107.014,10.857,100.141,0.0011453
8.89,109.214,10.857,100.143,-0.0004108
9.11,111.415,10.857,100.143,0.0005945
9.33,113.615,10.857,100.144,0.0003686
9.55,115.815,10.857,100.145,0.0002288
9.78,118.016,10.857,100.146,0.0002305
10,120.216,10.857,100.147,0.0006000
10.22,122.417,10.857,100.148,0.0003689
10.44,124.617,10.858,100.149,0.0006939
10.66,126.817,10.858,100.15,0.0003239
10.88,129.018,10.858,100.151,0.0001365
11.1,131.218,10.858,100.151,0.0002708
11.32,133.418,10.858,100.152,-0.0000915
11.54,135.619,10.858,100.153,-0.0000459
11.76,137.819,10.858,100.153,-0.0004594
11.98,140.02,10.858,100.154,0.0002298
12.2,142.22,10.858,100.155,0.0008286
12.42,144.42,10.858,100.157,0.0000000
12.65,146.621,10.859,100.158,0.0007922
12.87,148.821,10.859,100.16,0.0004130
13.09,151.022,10.859,100.16,0.0002299
13.31,153.222,10.859,100.16,-0.0004123
13.53,155.422,10.859,100.158,-0.0011814
13.75,157.623,10.858,100.154,-0.0014168
13.97,159.823,10.858,100.151,-0.0016330
14.18,162.024,10.858,100.148,-0.0004084
14.4,164.224,10.857,100.146,-0.0009164
14.62,166.424,10.857,100.145,-0.0005927
14.84,168.625,10.857,100.144,0.0002279
15.06,170.825,10.857,100.144,-0.0000461
15.29,173.026,10.857,100.143,-0.0006008
15.51,175.226,10.857,100.142,-0.0001833
15.73,177.426,10.857,100.142,-0.0004092
15.95,179.627,10.857,100.141,-0.0001364
16.16,181.827,10.857,100.14,-0.0001369
16.38,184.028,10.857,100.139,-0.0008689
16.6,186.228,10.856,100.137,-0.0006419
16.82,188.428,10.856,100.136,-0.0010534
17.04,190.629,10.856,100.135,-0.0001375
17.27,192.829,10.856,100.134,-0.0013339
17.48,195.029,10.856,100.133,-0.0007815
17.71,197.23,10.856,100.132,-0.0003208
17.93,199.43,10.856,100.131,-0.0000951
18.15,201.631,10.856,100.131,-0.0005003
18.37,203.831,10.855,100.129,-0.0008136
18.59,206.031,10.855,100.127,-0.0005378
18.81,208.232,10.855,100.126,-0.0009302
19.03,210.432,10.855,100.124,-0.0006019
19.25,212.633,10.855,100.123,0.0000000
19.47,214.833,10.855,100.122,-0.0011397
19.68,217.033,10.855,100.12,-0.0004502
19.9,219.234,10.854,100.119,-0.0006396
20.12,221.434,10.854,100.117,-0.0012445
20.35,223.635,10.854,100.115,-0.0011084
20.57,225.835,10.854,100.114,-0.0008778
20.8,228.035,10.854,100.112,-0.0006409
21.02,230.236,10.853,100.111,-0.0010247
21.25,232.436,10.853,100.109,-0.0006095
21.47,234.637,10.853,100.108,-0.0009458
21.69,236.837,10.853,100.105,-0.0014217
21.9,239.037,10.853,100.104,-0.0005412
22.12,241.238,10.852,100.102,-0.0006789
22.34,243.438,10.852,100.1,-0.0010892
22.55,245.639,10.852,100.098,-0.0011211
22.77,247.839,10.852,100.096,-0.0004539
22.99,250.039,10.852,100.093,-0.0018194
23.21,252.24,10.851,100.091,-0.0011774
23.43,254.44,10.851,100.089,-0.0014088
23.64,256.64,10.851,100.087,-0.0011409
23.86,258.841,10.851,100.085,-0.0011408
24.08,261.041,10.85,100.083,-0.0005104
24.31,263.242,10.85,100.08,-0.0009439
24.53,265.442,10.85,100.077,-0.0006831
24.75,267.642,10.85,100.075,-0.0008695
24.97,269.843,10.849,100.073,-0.0005914
25.19,272.043,10.849,100.071,-0.0003160
25.41,274.244,10.849,100.068,-0.0007870
25.63,276.444,10.849,100.066,-0.0007811
25.85,278.644,10.848,100.063,-0.0005488
26.07,280.845,10.848,100.06,-0.0013310
26.29,283.045,10.848,100.057,-0.0017425
26.52,285.246,10.847,100.054,-0.0013322
26.74,287.446,10.847,100.051,-0.0019615
26.96,289.646,10.847,100.048,-0.0008897
27.18,291.847,10.846,100.045,-0.0015089
27.39,294.047,10.846,100.041,-0.0017047
27.61,296.248,10.846,100.037,-0.0009945
27.83,298.448,10.845,100.034,-0.0014564
28.05,300.648,10.845,100.031,-0.0011143
28.27,302.849,10.844,100.027,-0.0020110
28.49,305.049,10.844,100.023,-0.0018235
28.72,307.25,10.844,100.019,-0.0023201
28.94,309.45,10.843,100.015,-0.0015110
29.16,311.65,10.843,100.011,-0.0014233
29.38,313.851,10.842,100.007,-0.0020363
29.6,316.051,10.842,100.003,-0.0022120
29.82,318.251,10.841,99.998,-0.0017333
30.04,320.452,10.841,99.993,-0.0022297
30.26,322.652,10.84,99.988,-0.0026512
30.48,324.853,10.84,99.984,-0.0016858
30.7,327.053,10.839,99.979,-0.0020897
30.91,329.253,10.839,99.975,-0.0022584
31.13,331.454,10.838,99.969,-0.0022822
31.35,333.654,10.838,99.964,-0.0024321
31.57,335.855,10.837,99.958,-0.0019196
31.79,338.055,10.836,99.953,-0.0025023
32.01,340.255,10.836,99.947,-0.0021481
32.23,342.456,10.835,99.942,-0.0029374
32.45,344.656,10.834,99.935,-0.0031733
32.67,346.857,10.834,99.93,-0.0022416
32.9,349.057,10.833,99.924,-0.0028975
33.12,351.257,10.833,99.918,-0.0029162
33.34,353.458,10.832,99.912,-0.0031006
33.56,355.658,10.831,99.906,-0.0033395
33.78,357.859,10.831,99.899,-0.0032508
34,360.059,10.83,99.893,-0.0028756
34.22,362.259,10.829,99.886,-0.0029714
34.44,364.46,10.828,99.88,-0.0034109
34.66,366.66,10.828,99.873,-0.0032211
34.88,368.861,10.827,99.866,-0.0026350
35.1,371.061,10.826,99.859,-0.0038126
35.32,373.261,10.825,99.852,-0.0038112
35.54,375.462,10.825,99.844,-0.0032567
35.76,377.662,10.824,99.836,-0.0038848
35.98,379.862,10.823,99.829,-0.0043175
36.19,382.063,10.822,99.82,-0.0037307
36.41,384.263,10.821,99.812,-0.0032259
36.64,386.464,10.82,99.802,-0.0045300
36.86,388.664,10.819,99.793,-0.0043382
37.09,390.864,10.818,99.783,-0.0041825
37.31,393.065,10.817,99.773,-0.0054849
37.52,395.265,10.816,99.762,-0.0047988
37.74,397.466,10.814,99.751,-0.0051523
37.96,399.666,10.813,99.739,-0.0060565
38.18,401.866,10.812,99.726,-0.0055942
38.39,404.067,10.81,99.712,-0.0066423
38.61,406.267,10.809,99.698,-0.0072918
38.83,408.468,10.807,99.681,-0.0077997
39.05,410.668,10.805,99.664,-0.0081393
39.27,412.868,10.803,99.645,-0.0089152
39.49,415.069,10.801,99.623,-0.0103007
39.72,417.269,10.798,99.6,-0.0116191
39.94,419.47,10.795,99.575,-0.0119047
40.16,421.67,10.792,99.547,-0.0133664
40.38,423.87,10.789,99.515,-0.0148627
40.59,426.071,10.785,99.48,-0.0165120
40.82,428.271,10.781,99.441,-0.0183919
41.04,430.472,10.776,99.398,-0.0206481
41.26,432.672,10.771,99.351,-0.0222253
41.48,434.872,10.765,99.299,-0.0244261
41.7,437.073,10.759,99.242,-0.0269203
41.92,439.273,10.753,99.181,-0.0288999
42.14,441.473,10.745,99.113,-0.0320887
42.36,443.674,10.737,99.038,-0.0356685
42.58,445.874,10.728,98.956,-0.0390767
42.8,448.075,10.718,98.864,-0.0433028
43.02,450.275,10.707,98.763,-0.0481158
43.24,452.475,10.695,98.653,-0.0526460
43.45,454.676,10.682,98.533,-0.0571442
43.67,456.876,10.668,98.398,-0.0649126
43.89,459.077,10.651,98.243,-0.0756685
44.11,461.277,10.632,98.071,-0.0828502
44.33,463.477,10.611,97.878,-0.0932767
44.55,465.678,10.588,97.66,-0.1078180
44.78,467.878,10.56,97.401,-0.1279780
45,470.079,10.525,97.08,-0.1515730
45.21,472.279,10.486,96.719,-0.1833640
45.44,474.479,10.441,96.302,-0.2030330
45.66,476.68,10.387,95.812,-0.2452810
45.88,478.88,10.318,95.176,-0.3237180
46.1,481.081,10.233,94.384,-0.3958180
46.32,483.281,10.13,93.437,-0.4543630
46.54,485.481,10.011,92.336,-0.5371300
46.76,487.682,9.871,91.052,-0.6376850
46.98,489.882,9.702,89.49,-0.7951310
47.2,492.083,9.491,87.546,-1.11082
47.42,494.283,9.214,84.99,-1.21461
47.63,496.483,8.88,81.911,-1.44307
47.86,498.684,8.508,78.477,-1.68528
48.08,500.884,8.073,74.466,-1.97295
48.3,503.084,7.573,69.851,-2.33407
48.52,505.285,6.907,63.707,-2.86894
48.74,507.485,6.126,56.504,-3.80019
48.96,509.686,5.312,48.997,-2.33754
49.17,511.886,4.662,43.003,-3.02261
49.4,514.086,3.879,35.779,-3.76546
49.61,516.287,2.986,27.545,-3.51478
49.83,518.487,2.167,19.984,-3.26817
50.05,520.688,1.422,13.116,-2.99212
50.28,522.888,0.7660000,7.068,-2.32837
50.49,525.088,0.3290000,3.036,-1.38445
50.71,527.289,0.1040000,0.9640000,-0.5398240
50.93,529.489,0.0380000,0.3540000,-0.1002640
51.16,531.69,0.0240000,0.2240000,-0.0483569
51.38,533.89,0.0160000,0.1500000,-0.0203884
51.6,536.09,0.0130000,0.1220000,-0.0067284
51.82,538.291,0.0120000,0.1110000,-0.0030950
52.04,540.491,0.0120000,0.1070000,-0.0010398
52.26,542.692,0.0110000,0.1050000,-0.0001997
52.48,544.892,0.0110000,0.1030000,-0.0006060
52.7,547.092,0.0110000,0.1020000,-0.0004372
52.92,549.293,0.0110000,0.1010000,-0.0000628
53.14,551.493,0.0110000,0.1010000,-0.0005306
53.37,553.694,0.0110000,0.1000000,-0.0010137
53.59,555.894,0.0110000,0.0990000,-0.0002010
53.81,558.094,0.0110000,0.0980000,0.0002257
54.02,560.295,0.0110000,0.0970000,-0.0004434
54.24,562.495,0.0110000,0.0970000,-0.0004661
54.46,564.695,0.0100000,0.0960000,-0.0007474
54.68,566.896,0.0100000,0.0950000,-0.0005700
54.9,569.096,0.0100000,0.0950000,-0.0004860
55.12,571.297,0.0100000,0.0940000,-0.0001588
55.34,573.497,0.0100000,0.0930000,-0.0007677
55.56,575.697,0.0100000,0.0910000,-0.0005230
55.78,577.898,0.0100000,0.0900000,-0.0005341
56,580.098,0.0100000,0.0890000,-0.0001648
56.22,582.299,0.0100000,0.0890000,-0.0008452
56.44,584.499,0.0090000,0.0870000,-0.0008713
56.66,586.699,0.0090000,0.0860000,-0.0004538
56.88,588.9,0.0090000,0.0850000,-0.0006005
56.99,590,0.0090000,0.0850000,-0.0003527