File: R/rHDPE_App/app/www/Output/TGA/Condensed_Data/Resin5_1__1.csv
1.14,30,15.353,100.034,0.0030262
1.39,32.2004,15.354,100.039,0.0021006
1.63,34.4008,15.354,100.044,0.0020973
1.86,36.6012,15.355,100.047,0.0021398
2.09,38.8016,15.355,100.05,0.0023128
2.33,41.002,15.356,100.052,0.0017921
2.56,43.2024,15.356,100.055,0.0014722
2.79,45.4028,15.357,100.058,0.0008713
3.01,47.6031,15.357,100.061,0.0014954
3.24,49.8035,15.357,100.063,0.0009874
3.46,52.0039,15.358,100.065,0.0013010
3.68,54.2043,15.358,100.067,0.0005815
3.9,56.4047,15.358,100.07,0.0014244
4.13,58.6051,15.359,100.072,0.0013828
4.35,60.8055,15.359,100.075,0.0013245
4.57,63.0059,15.36,100.078,0.0013362
4.79,65.2063,15.36,100.08,0.0015624
5.01,67.4067,15.36,100.082,0.0005989
5.23,69.6071,15.361,100.084,0.0006440
5.45,71.8075,15.361,100.086,0.0015188
5.67,74.0079,15.361,100.088,0.0000460
5.89,76.2083,15.362,100.09,0.0008188
6.11,78.4086,15.362,100.092,0.0008235
6.34,80.609,15.362,100.093,0.0011481
6.55,82.8094,15.362,100.095,0.0005967
6.78,85.0098,15.363,100.097,0.0010094
7,87.2102,15.363,100.099,0.0004184
7.22,89.4106,15.363,100.101,0.0010534
7.44,91.611,15.363,100.102,0.0002750
7.66,93.8114,15.364,100.103,0.0005403
7.88,96.0118,15.364,100.105,0.0005035
8.1,98.2122,15.364,100.106,0.0003664
8.32,100.413,15.364,100.107,0.0012361
8.54,102.613,15.364,100.108,0.0003389
8.76,104.813,15.365,100.109,0.0000915
8.98,107.014,15.365,100.11,0.0005038
9.2,109.214,15.365,100.111,0.0003204
9.42,111.415,15.365,100.112,0.0002750
9.64,113.615,15.365,100.113,0.0003882
9.86,115.815,15.365,100.113,0.0002290
10.08,118.016,15.365,100.114,0.0005046
10.3,120.216,15.365,100.114,0.0001834
10.52,122.417,15.365,100.115,0.0000000
10.74,124.617,15.365,100.115,0.0001737
10.96,126.817,15.365,100.115,-0.0000000
11.18,129.018,15.365,100.115,0.0000460
11.4,131.218,15.365,100.116,-0.0000754
11.62,133.418,15.366,100.116,0.0003209
11.84,135.619,15.365,100.116,-0.0000461
12.06,137.819,15.366,100.116,0.0000000
12.28,140.02,15.365,100.116,-0.0002748
12.5,142.22,15.365,100.115,-0.0001371
12.72,144.42,15.365,100.115,0.0000000
12.94,146.621,15.365,100.115,0.0000917
13.16,148.821,15.365,100.115,0.0002251
13.38,151.022,15.366,100.116,0.0000000
13.6,153.222,15.366,100.116,-0.0001052
13.82,155.422,15.366,100.116,-0.0004340
14.04,157.623,15.365,100.115,-0.0006105
14.26,159.823,15.365,100.113,-0.0009595
14.48,162.024,15.364,100.109,-0.0020106
14.7,164.224,15.364,100.104,-0.0025153
14.92,166.424,15.363,100.099,-0.0022732
15.14,168.625,15.362,100.094,-0.0019261
15.36,170.825,15.362,100.09,-0.0015015
15.58,173.026,15.361,100.087,-0.0015968
15.8,175.226,15.361,100.083,-0.0014742
16.02,177.426,15.36,100.08,-0.0015920
16.24,179.627,15.359,100.076,-0.0018643
16.46,181.827,15.359,100.073,-0.0017011
16.68,184.028,15.358,100.069,-0.0017955
16.9,186.228,15.358,100.065,-0.0019712
17.13,188.428,15.357,100.06,-0.0022683
17.35,190.629,15.356,100.056,-0.0012502
17.57,192.829,15.356,100.051,-0.0025334
17.79,195.029,15.355,100.046,-0.0021916
18.01,197.23,15.354,100.04,-0.0020699
18.23,199.43,15.353,100.035,-0.0024341
18.44,201.631,15.352,100.029,-0.0023521
18.67,203.831,15.351,100.024,-0.0026207
18.89,206.031,15.351,100.018,-0.0028367
19.11,208.232,15.35,100.012,-0.0031426
19.33,210.432,15.349,100.006,-0.0027172
19.55,212.633,15.348,99.999,-0.0025800
19.77,214.833,15.347,99.993,-0.0032922
19.99,217.033,15.346,99.986,-0.0030248
20.21,219.234,15.345,99.98,-0.0027464
20.43,221.434,15.344,99.973,-0.0032249
20.65,223.635,15.342,99.966,-0.0029282
20.87,225.835,15.341,99.958,-0.0034045
21.09,228.035,15.34,99.951,-0.0035672
21.31,230.236,15.339,99.944,-0.0032359
21.53,232.436,15.338,99.937,-0.0032293
21.75,234.637,15.337,99.929,-0.0032098
21.97,236.837,15.336,99.922,-0.0035096
22.19,239.037,15.335,99.914,-0.0034541
22.41,241.238,15.333,99.906,-0.0037458
22.63,243.438,15.332,99.898,-0.0037820
22.85,245.639,15.331,99.89,-0.0038287
23.07,247.839,15.33,99.882,-0.0035784
23.29,250.039,15.328,99.874,-0.0037897
23.51,252.24,15.327,99.867,-0.0030220
23.73,254.44,15.326,99.859,-0.0037115
23.95,256.64,15.325,99.851,-0.0038389
24.17,258.841,15.324,99.843,-0.0037943
24.39,261.041,15.322,99.835,-0.0037173
24.61,263.242,15.321,99.827,-0.0032169
24.83,265.442,15.32,99.819,-0.0029358
25.05,267.642,15.319,99.812,-0.0032200
25.27,269.843,15.318,99.804,-0.0038159
25.49,272.043,15.316,99.796,-0.0038142
25.71,274.244,15.315,99.788,-0.0035580
25.93,276.444,15.314,99.78,-0.0033969
26.15,278.644,15.313,99.772,-0.0038004
26.37,280.845,15.312,99.764,-0.0036272
26.59,283.045,15.31,99.756,-0.0036172
26.82,285.246,15.309,99.748,-0.0037537
27.03,287.446,15.308,99.74,-0.0037861
27.25,289.646,15.307,99.732,-0.0037505
27.31,291.847,15.306,99.73,-0.0036210
27.31,294.047,15.306,99.73,-0.0036210
27.31,296.248,15.306,99.73,-0.0036210
27.31,298.448,15.306,99.73,-0.0036210
27.31,300.648,15.306,99.73,-0.0036210
27.31,302.849,15.306,99.73,-0.0036210
27.31,305.049,15.306,99.73,-0.0036210
27.31,307.25,15.306,99.73,-0.0036210
27.31,309.45,15.306,99.73,-0.0036210
27.31,311.65,15.306,99.73,-0.0036210
27.31,313.851,15.306,99.73,-0.0036210
27.31,316.051,15.306,99.73,-0.0036210
27.31,318.251,15.306,99.73,-0.0036210
27.31,320.452,15.306,99.73,-0.0036210
27.31,322.652,15.306,99.73,-0.0036210
27.31,324.853,15.306,99.73,-0.0036210
27.31,327.053,15.306,99.73,-0.0036210
27.31,329.253,15.306,99.73,-0.0036210
27.31,331.454,15.306,99.73,-0.0036210
27.31,333.654,15.306,99.73,-0.0036210
27.31,335.855,15.306,99.73,-0.0036210
27.31,338.055,15.306,99.73,-0.0036210
27.31,340.255,15.306,99.73,-0.0036210
27.31,342.456,15.306,99.73,-0.0036210
27.31,344.656,15.306,99.73,-0.0036210
27.31,346.857,15.306,99.73,-0.0036210
27.31,349.057,15.306,99.73,-0.0036210
27.31,351.257,15.306,99.73,-0.0036210
27.31,353.458,15.306,99.73,-0.0036210
27.31,355.658,15.306,99.73,-0.0036210
27.31,357.859,15.306,99.73,-0.0036210
27.31,360.059,15.306,99.73,-0.0036210
27.31,362.259,15.306,99.73,-0.0036210
27.31,364.46,15.306,99.73,-0.0036210
27.31,366.66,15.306,99.73,-0.0036210
27.31,368.861,15.306,99.73,-0.0036210
27.31,371.061,15.306,99.73,-0.0036210
27.31,373.261,15.306,99.73,-0.0036210
27.31,375.462,15.306,99.73,-0.0036210
27.31,377.662,15.306,99.73,-0.0036210
27.31,379.862,15.306,99.73,-0.0036210
27.31,382.063,15.306,99.73,-0.0036210
27.31,384.263,15.306,99.73,-0.0036210
27.31,386.464,15.306,99.73,-0.0036210
27.31,388.664,15.306,99.73,-0.0036210
27.31,390.864,15.306,99.73,-0.0036210
27.31,393.065,15.306,99.73,-0.0036210
27.31,395.265,15.306,99.73,-0.0036210
27.31,397.466,15.306,99.73,-0.0036210
27.31,399.666,15.306,99.73,-0.0036210
27.31,401.866,15.306,99.73,-0.0036210
27.31,404.067,15.306,99.73,-0.0036210
27.31,406.267,15.306,99.73,-0.0036210
27.31,408.468,15.306,99.73,-0.0036210
27.31,410.668,15.306,99.73,-0.0036210
27.31,412.868,15.306,99.73,-0.0036210
27.31,415.069,15.306,99.73,-0.0036210
27.31,417.269,15.306,99.73,-0.0036210
27.31,419.47,15.306,99.73,-0.0036210
27.31,421.67,15.306,99.73,-0.0036210
27.31,423.87,15.306,99.73,-0.0036210
27.31,426.071,15.306,99.73,-0.0036210
27.31,428.271,15.306,99.73,-0.0036210
27.31,430.472,15.306,99.73,-0.0036210
27.31,432.672,15.306,99.73,-0.0036210
27.31,434.872,15.306,99.73,-0.0036210
27.31,437.073,15.306,99.73,-0.0036210
27.31,439.273,15.306,99.73,-0.0036210
27.31,441.473,15.306,99.73,-0.0036210
27.31,443.674,15.306,99.73,-0.0036210
27.31,445.874,15.306,99.73,-0.0036210
27.31,448.075,15.306,99.73,-0.0036210
27.31,450.275,15.306,99.73,-0.0036210
27.31,452.475,15.306,99.73,-0.0036210
27.31,454.676,15.306,99.73,-0.0036210
27.31,456.876,15.306,99.73,-0.0036210
27.31,459.077,15.306,99.73,-0.0036210
27.31,461.277,15.306,99.73,-0.0036210
27.31,463.477,15.306,99.73,-0.0036210
27.31,465.678,15.306,99.73,-0.0036210
27.31,467.878,15.306,99.73,-0.0036210
27.31,470.079,15.306,99.73,-0.0036210
27.31,472.279,15.306,99.73,-0.0036210
27.31,474.479,15.306,99.73,-0.0036210
27.31,476.68,15.306,99.73,-0.0036210
27.31,478.88,15.306,99.73,-0.0036210
27.31,481.081,15.306,99.73,-0.0036210
27.31,483.281,15.306,99.73,-0.0036210
27.31,485.481,15.306,99.73,-0.0036210
27.31,487.682,15.306,99.73,-0.0036210
27.31,489.882,15.306,99.73,-0.0036210
27.31,492.083,15.306,99.73,-0.0036210
27.31,494.283,15.306,99.73,-0.0036210
27.31,496.483,15.306,99.73,-0.0036210
27.31,498.684,15.306,99.73,-0.0036210
27.31,500.884,15.306,99.73,-0.0036210
27.31,503.084,15.306,99.73,-0.0036210
27.31,505.285,15.306,99.73,-0.0036210
27.31,507.485,15.306,99.73,-0.0036210
27.31,509.686,15.306,99.73,-0.0036210
27.31,511.886,15.306,99.73,-0.0036210
27.31,514.086,15.306,99.73,-0.0036210
27.31,516.287,15.306,99.73,-0.0036210
27.31,518.487,15.306,99.73,-0.0036210
27.31,520.688,15.306,99.73,-0.0036210
27.31,522.888,15.306,99.73,-0.0036210
27.31,525.088,15.306,99.73,-0.0036210
27.31,527.289,15.306,99.73,-0.0036210
27.31,529.489,15.306,99.73,-0.0036210
27.31,531.69,15.306,99.73,-0.0036210
27.31,533.89,15.306,99.73,-0.0036210
27.31,536.09,15.306,99.73,-0.0036210
27.31,538.291,15.306,99.73,-0.0036210
27.31,540.491,15.306,99.73,-0.0036210
27.31,542.692,15.306,99.73,-0.0036210
27.31,544.892,15.306,99.73,-0.0036210
27.31,547.092,15.306,99.73,-0.0036210
27.31,549.293,15.306,99.73,-0.0036210
27.31,551.493,15.306,99.73,-0.0036210
27.31,553.694,15.306,99.73,-0.0036210
27.31,555.894,15.306,99.73,-0.0036210
27.31,558.094,15.306,99.73,-0.0036210
27.31,560.295,15.306,99.73,-0.0036210
27.31,562.495,15.306,99.73,-0.0036210
27.31,564.695,15.306,99.73,-0.0036210
27.31,566.896,15.306,99.73,-0.0036210
27.31,569.096,15.306,99.73,-0.0036210
27.31,571.297,15.306,99.73,-0.0036210
27.31,573.497,15.306,99.73,-0.0036210
27.31,575.697,15.306,99.73,-0.0036210
27.31,577.898,15.306,99.73,-0.0036210
27.31,580.098,15.306,99.73,-0.0036210
27.31,582.299,15.306,99.73,-0.0036210
27.31,584.499,15.306,99.73,-0.0036210
27.31,586.699,15.306,99.73,-0.0036210
27.31,588.9,15.306,99.73,-0.0036210
27.31,590,15.306,99.73,-0.0036210