File: R/rHDPE_App/app/www/Output/TGA/Condensed_Data/Resin6_0__1.csv
1.31,30,14.027,100.043,-0.0002561
1.56,32.3004,14.027,100.045,0.0020893
1.81,34.6008,14.028,100.047,0.0001467
2.05,36.9012,14.028,100.049,0.0011127
2.29,39.2016,14.028,100.052,0.0007218
2.54,41.5021,14.029,100.054,0.0011474
2.78,43.8025,14.029,100.056,0.0009498
3.01,46.1029,14.029,100.059,0.0014162
3.25,48.4033,14.03,100.062,0.0011743
3.49,50.7037,14.03,100.064,0.0013093
3.72,53.0041,14.03,100.067,0.0017224
3.95,55.3045,14.031,100.069,0.0008816
4.19,57.6049,14.031,100.072,0.0012501
4.42,59.9053,14.032,100.074,0.0007851
4.65,62.2058,14.032,100.076,0.0004148
4.88,64.5062,14.032,100.078,0.0013339
5.11,66.8066,14.032,100.08,0.0003675
5.34,69.107,14.033,100.082,0.0011934
5.57,71.4074,14.033,100.083,0.0001376
5.8,73.7078,14.033,100.085,0.0009164
6.04,76.0082,14.033,100.087,0.0009158
6.26,78.3086,14.033,100.088,0.0003662
6.49,80.609,14.034,100.089,0.0009605
6.72,82.9094,14.034,100.091,0.0000458
6.95,85.2099,14.034,100.091,0.0007314
7.19,87.5103,14.034,100.093,0.0003654
7.41,89.8107,14.034,100.093,0.0001832
7.65,92.1111,14.034,100.095,0.0008233
7.88,94.4115,14.034,100.095,0.0000457
8.1,96.7119,14.034,100.095,0.0010076
8.34,99.0123,14.035,100.096,0.0002287
8.56,101.313,14.035,100.096,0.0000457
8.79,103.613,14.035,100.097,0.0009601
9.02,105.914,14.035,100.097,-0.0004127
9.25,108.214,14.035,100.097,0.0006874
9.48,110.514,14.035,100.097,-0.0004588
9.72,112.815,14.035,100.097,0.0005950
9.95,115.115,14.035,100.097,0.0003665
10.18,117.416,14.035,100.097,-0.0003205
10.4,119.716,14.035,100.096,0.0005956
10.63,122.016,14.035,100.096,-0.0007335
10.87,124.317,14.035,100.096,-0.0003207
11.1,126.617,14.035,100.096,0.0003667
11.33,128.918,14.035,100.096,-0.0002751
11.56,131.218,14.035,100.096,0.0007319
11.79,133.518,14.035,100.096,-0.0009631
12.02,135.819,14.035,100.095,0.0000000
12.25,138.119,14.034,100.094,-0.0011870
12.48,140.42,14.034,100.092,-0.0017356
12.7,142.72,14.033,100.088,-0.0015041
12.93,145.021,14.033,100.083,-0.0029634
13.17,147.321,14.032,100.079,-0.0010982
13.4,149.621,14.032,100.076,-0.0014250
13.63,151.922,14.031,100.073,-0.0012856
13.86,154.222,14.031,100.07,-0.0010558
14.09,156.523,14.031,100.067,-0.0018349
14.32,158.823,14.03,100.064,-0.0005051
14.55,161.123,14.03,100.061,-0.0015554
14.78,163.424,14.029,100.058,-0.0014656
15.01,165.724,14.029,100.055,-0.0011476
15.24,168.025,14.028,100.051,-0.0024301
15.47,170.325,14.028,100.047,-0.0008239
15.7,172.625,14.027,100.043,-0.0026135
15.93,174.926,14.027,100.039,-0.0017895
16.16,177.226,14.026,100.035,-0.0019715
16.39,179.527,14.025,100.03,-0.0022879
16.62,181.827,14.025,100.025,-0.0017852
16.85,184.128,14.024,100.02,-0.0026099
17.08,186.428,14.023,100.014,-0.0016494
17.31,188.728,14.022,100.009,-0.0028427
17.54,191.029,14.022,100.004,-0.0022422
17.77,193.329,14.021,99.998,-0.0018350
18,195.63,14.02,99.992,-0.0030678
18.23,197.93,14.019,99.986,-0.0023373
18.46,200.23,14.018,99.98,-0.0034419
18.69,202.531,14.017,99.974,-0.0021068
18.92,204.831,14.017,99.968,-0.0027465
19.15,207.132,14.016,99.961,-0.0031599
19.38,209.432,14.015,99.954,-0.0020187
19.62,211.732,14.014,99.948,-0.0032557
19.84,214.033,14.013,99.941,-0.0032458
20.08,216.333,14.012,99.934,-0.0025206
20.31,218.634,14.011,99.926,-0.0033422
20.53,220.934,14.01,99.919,-0.0027015
20.77,223.235,14.009,99.912,-0.0037535
20.99,225.535,14.008,99.905,-0.0028427
21.23,227.835,14.007,99.897,-0.0032988
21.46,230.136,14.006,99.889,-0.0036660
21.68,232.436,14.005,99.882,-0.0026588
21.92,234.737,14.003,99.874,-0.0040740
22.15,237.037,14.002,99.866,-0.0032089
22.38,239.337,14.001,99.859,-0.0039879
22.61,241.638,14,99.851,-0.0034789
22.84,243.938,13.999,99.843,-0.0031607
23.07,246.239,13.998,99.835,-0.0039352
23.3,248.539,13.997,99.827,-0.0032101
23.53,250.839,13.996,99.819,-0.0042614
23.76,253.14,13.995,99.811,-0.0037064
23.99,255.44,13.993,99.803,-0.0028786
24.22,257.741,13.992,99.794,-0.0044536
24.45,260.041,13.991,99.786,-0.0030220
24.68,262.341,13.99,99.778,-0.0041171
24.91,264.642,13.989,99.769,-0.0043916
25.14,266.942,13.988,99.76,-0.0035800
25.37,269.243,13.986,99.751,-0.0041231
25.6,271.543,13.985,99.743,-0.0034422
25.83,273.844,13.984,99.734,-0.0041704
26.06,276.144,13.983,99.725,-0.0043514
26.29,278.444,13.981,99.717,-0.0038039
26.52,280.745,13.98,99.708,-0.0047619
26.75,283.045,13.979,99.699,-0.0038991
26.98,285.346,13.978,99.69,-0.0040789
27.21,287.646,13.976,99.68,-0.0042125
27.44,289.946,13.975,99.671,-0.0034378
27.67,292.247,13.974,99.662,-0.0043458
27.9,294.547,13.972,99.652,-0.0037245
28.13,296.848,13.971,99.643,-0.0043442
28.36,299.148,13.97,99.634,-0.0042178
28.59,301.448,13.968,99.624,-0.0041232
28.82,303.749,13.967,99.614,-0.0045396
29.05,306.049,13.966,99.604,-0.0036603
29.28,308.35,13.964,99.594,-0.0047161
29.51,310.65,13.963,99.584,-0.0043040
29.74,312.951,13.961,99.574,-0.0041843
29.97,315.251,13.96,99.564,-0.0043907
30.2,317.551,13.959,99.554,-0.0038482
30.43,319.852,13.957,99.544,-0.0050366
30.66,322.152,13.956,99.533,-0.0046262
30.89,324.453,13.954,99.523,-0.0043056
31.12,326.753,13.953,99.512,-0.0048499
31.35,329.053,13.951,99.502,-0.0039255
31.58,331.354,13.95,99.491,-0.0049451
31.81,333.654,13.948,99.48,-0.0045914
32.04,335.955,13.947,99.469,-0.0047532
32.27,338.255,13.945,99.456,-0.0052656
32.5,340.555,13.943,99.445,-0.0048957
32.73,342.856,13.942,99.432,-0.0053084
32.96,345.156,13.94,99.42,-0.0049945
33.19,347.457,13.938,99.407,-0.0058086
33.42,349.757,13.936,99.394,-0.0056828
33.65,352.058,13.934,99.38,-0.0055342
33.88,354.358,13.932,99.366,-0.0067246
34.11,356.658,13.93,99.351,-0.0060931
34.34,358.959,13.928,99.336,-0.0072736
34.57,361.259,13.926,99.32,-0.0067915
34.8,363.56,13.923,99.303,-0.0074202
35.03,365.86,13.921,99.286,-0.0070906
35.26,368.16,13.918,99.268,-0.0052226
35.49,370.461,13.916,99.247,-0.0090626
35.73,372.761,13.912,99.225,-0.0096718
35.96,375.062,13.909,99.202,-0.0105007
36.19,377.362,13.906,99.177,-0.0116959
36.41,379.662,13.902,99.15,-0.0122096
36.64,381.963,13.898,99.12,-0.0141207
36.88,384.263,13.893,99.087,-0.0148858
37.11,386.564,13.888,99.051,-0.0170277
37.34,388.864,13.882,99.01,-0.0180176
37.56,391.164,13.876,98.966,-0.0197333
37.79,393.465,13.869,98.918,-0.0226273
38.03,395.765,13.862,98.863,-0.0252381
38.26,398.066,13.853,98.801,-0.0284184
38.49,400.366,13.843,98.732,-0.0313358
38.71,402.667,13.833,98.656,-0.0351183
38.94,404.967,13.821,98.57,-0.0391825
39.18,407.267,13.807,98.475,-0.0436217
39.41,409.568,13.792,98.366,-0.0504390
39.63,411.868,13.775,98.244,-0.0570762
39.86,414.169,13.755,98.102,-0.0658570
40.09,416.469,13.732,97.941,-0.0761665
40.32,418.769,13.704,97.736,-0.1007500
40.55,421.07,13.667,97.472,-0.1296410
40.79,423.37,13.623,97.16,-0.1432230
41.01,425.671,13.575,96.817,-0.1550790
41.24,427.971,13.519,96.42,-0.1920190
41.48,430.271,13.456,95.969,-0.2156180
41.71,432.572,13.376,95.396,-0.2804260
41.94,434.872,13.276,94.688,-0.3445570
42.16,437.173,13.154,93.817,-0.4410600
42.39,439.473,13.016,92.831,-0.4485870
42.63,441.774,12.843,91.597,-0.6503660
42.86,444.074,12.628,90.066,-0.7602950
43.09,446.374,12.374,88.252,-0.9204020
43.31,448.675,12.037,85.848,-1.1951
43.54,450.975,11.629,82.939,-1.37424
43.78,453.276,11.15,79.525,-1.52803
44.01,455.576,10.588,75.515,-1.88743
44.24,457.876,9.933,70.844,-2.1087
44.46,460.177,9.176,65.441,-2.41708
44.7,462.477,8.275,59.017,-2.99714
44.93,464.778,7.212,51.44,-3.64991
45.16,467.078,5.932,42.304,-3.77928
45.39,469.378,4.652,33.177,-3.91902
45.62,471.679,3.357,23.942,-3.92921
45.85,473.979,2.141,15.269,-3.65103
46.08,476.28,1.16,8.272,-2.56795
46.3,478.58,0.4850000,3.458,-1.52342
46.53,480.881,0.1430000,1.023,-0.5896850
46.76,483.181,0.0460000,0.3260000,-0.0986609
46.99,485.481,0.0320000,0.2260000,-0.0287021
47.22,487.782,0.0260000,0.1850000,-0.0098966
47.45,490.082,0.0240000,0.1710000,-0.0029325
47.69,492.383,0.0230000,0.1670000,-0.0004702
47.91,494.683,0.0230000,0.1660000,-0.0002000
48.14,496.983,0.0230000,0.1660000,-0.0000557
48.38,499.284,0.0230000,0.1660000,-0.0000501
48.61,501.584,0.0230000,0.1650000,-0.0000148
48.83,503.885,0.0230000,0.1660000,-0.0001065
49.06,506.185,0.0230000,0.1650000,-0.0002644
49.29,508.485,0.0230000,0.1670000,0.0006468
49.52,510.786,0.0240000,0.1690000,-0.0012229
49.75,513.086,0.0230000,0.1670000,-0.0010398
49.98,515.387,0.0230000,0.1660000,-0.0006304
50.21,517.687,0.0240000,0.1730000,0.0007213
50.44,519.987,0.0240000,0.1720000,0.0001081
50.67,522.288,0.0240000,0.1720000,0.0000895
50.9,524.588,0.0240000,0.1720000,-0.0001851
51.13,526.889,0.0240000,0.1710000,-0.0003237
51.36,529.189,0.0240000,0.1710000,-0.0004282
51.59,531.49,0.0240000,0.1710000,0.0001967
51.82,533.79,0.0240000,0.1710000,0.0000610
52.05,536.09,0.0240000,0.1700000,0.0003001
52.28,538.391,0.0240000,0.1700000,0.0000410
52.51,540.691,0.0240000,0.1700000,0.0001217
52.74,542.992,0.0240000,0.1700000,0.0000790
52.97,545.292,0.0240000,0.1690000,0.0000698
53.2,547.592,0.0240000,0.1690000,-0.0000235
53.43,549.893,0.0240000,0.1690000,-0.0001428
53.66,552.193,0.0240000,0.1690000,-0.0000745
53.89,554.494,0.0240000,0.1690000,0.0002157
54.12,556.794,0.0240000,0.1680000,0.0000380
54.35,559.094,0.0240000,0.1680000,0.0002934
54.58,561.395,0.0240000,0.1680000,-0.0000317
54.81,563.695,0.0240000,0.1680000,0.0005062
55.04,565.996,0.0240000,0.1680000,0.0001994
55.27,568.296,0.0240000,0.1680000,0.0000281
55.5,570.597,0.0240000,0.1680000,0.0000984
55.73,572.897,0.0240000,0.1680000,-0.0001260
55.96,575.197,0.0240000,0.1680000,0.0001800
56.19,577.498,0.0240000,0.1680000,0.0005810
56.42,579.798,0.0240000,0.1680000,-0.0004703
56.65,582.099,0.0240000,0.1680000,-0.0002835
56.88,584.399,0.0230000,0.1670000,-0.0005018
57.11,586.699,0.0230000,0.1670000,-0.0002795
57.34,589,0.0230000,0.1660000,-0.0002153
57.44,590,0.0230000,0.1660000,-0.0003041