File: R/rHDPE_App/app/www/Output/TGA/Condensed_Data/Resin10_1_.csv
0.5800000,30,9.972,100.013
0.8500000,31.9003,9.973,100.026
1.09,33.8007,9.974,100.036
1.31,35.701,9.975,100.043
1.53,37.6014,9.976,100.05
1.73,39.5017,9.976,100.054
1.93,41.402,9.977,100.059
2.14,43.3024,9.977,100.063
2.34,45.2027,9.977,100.067
2.53,47.1031,9.978,100.071
2.73,49.0034,9.978,100.074
2.93,50.9037,9.978,100.078
3.12,52.8041,9.979,100.081
3.32,54.7044,9.979,100.085
3.51,56.6048,9.98,100.089
3.71,58.5051,9.98,100.093
3.9,60.4054,9.98,100.096
4.09,62.3058,9.981,100.099
4.28,64.2061,9.981,100.103
4.47,66.1064,9.981,100.107
4.66,68.0068,9.982,100.109
4.86,69.9071,9.982,100.112
5.05,71.8075,9.982,100.116
5.24,73.7078,9.983,100.12
5.43,75.6081,9.983,100.122
5.62,77.5085,9.983,100.125
5.81,79.4088,9.983,100.127
6,81.3092,9.983,100.129
6.19,83.2095,9.984,100.132
6.38,85.1098,9.984,100.134
6.57,87.0102,9.984,100.136
6.76,88.9105,9.984,100.138
6.95,90.8109,9.985,100.14
7.14,92.7112,9.985,100.142
7.33,94.6115,9.985,100.144
7.52,96.5119,9.985,100.146
7.71,98.4122,9.985,100.147
7.9,100.313,9.985,100.149
8.09,102.213,9.986,100.15
8.28,104.113,9.986,100.152
8.47,106.014,9.986,100.153
8.66,107.914,9.986,100.153
8.85,109.814,9.986,100.154
9.04,111.715,9.986,100.155
9.23,113.615,9.986,100.157
9.42,115.515,9.986,100.158
9.61,117.416,9.986,100.158
9.8,119.316,9.986,100.158
9.99,121.216,9.986,100.158
10.18,123.117,9.986,100.158
10.37,125.017,9.986,100.158
10.56,126.917,9.986,100.158
10.75,128.818,9.986,100.158
10.95,130.718,9.986,100.158
11.13,132.618,9.986,100.158
11.33,134.519,9.986,100.158
11.51,136.419,9.986,100.158
11.7,138.319,9.986,100.158
11.89,140.22,9.986,100.158
12.08,142.12,9.986,100.158
12.28,144.02,9.986,100.158
12.47,145.921,9.986,100.158
12.66,147.821,9.986,100.157
12.85,149.721,9.986,100.156
13.04,151.622,9.986,100.153
13.23,153.522,9.985,100.149
13.42,155.422,9.985,100.144
13.61,157.323,9.984,100.138
13.8,159.223,9.984,100.134
13.99,161.123,9.984,100.13
14.18,163.024,9.983,100.127
14.37,164.924,9.983,100.124
14.55,166.824,9.983,100.121
14.75,168.725,9.982,100.117
14.94,170.625,9.982,100.114
15.13,172.525,9.982,100.11
15.32,174.426,9.981,100.106
15.51,176.326,9.981,100.103
15.7,178.226,9.98,100.098
15.89,180.127,9.98,100.093
16.08,182.027,9.98,100.089
16.27,183.927,9.979,100.085
16.46,185.828,9.979,100.081
16.65,187.728,9.978,100.075
16.84,189.629,9.978,100.07
17.03,191.529,9.977,100.064
17.22,193.429,9.977,100.059
17.41,195.33,9.976,100.053
17.6,197.23,9.975,100.047
17.79,199.13,9.975,100.041
17.98,201.031,9.974,100.036
18.17,202.931,9.974,100.029
18.36,204.831,9.973,100.022
18.55,206.732,9.972,100.016
18.74,208.632,9.972,100.01
18.93,210.532,9.971,100.003
19.12,212.433,9.97,99.996
19.31,214.333,9.97,99.989
19.49,216.233,9.969,99.982
19.68,218.134,9.968,99.975
19.88,220.034,9.967,99.968
20.07,221.934,9.967,99.961
20.26,223.835,9.966,99.954
20.45,225.735,9.965,99.946
20.64,227.635,9.965,99.939
20.84,229.536,9.964,99.931
21.03,231.436,9.963,99.924
21.22,233.336,9.962,99.917
21.41,235.237,9.962,99.909
21.59,237.137,9.961,99.902
21.78,239.037,9.96,99.894
21.97,240.938,9.959,99.887
22.16,242.838,9.959,99.88
22.35,244.738,9.958,99.872
22.54,246.639,9.957,99.864
22.73,248.539,9.956,99.857
22.92,250.439,9.956,99.85
23.11,252.34,9.955,99.842
23.31,254.24,9.954,99.835
23.49,256.14,9.953,99.828
23.68,258.041,9.953,99.821
23.88,259.941,9.952,99.813
24.07,261.841,9.951,99.807
24.27,263.742,9.951,99.8
24.46,265.642,9.95,99.794
24.65,267.542,9.949,99.787
24.83,269.443,9.949,99.78
25.02,271.343,9.948,99.773
25.21,273.243,9.947,99.767
25.39,275.144,9.947,99.76
25.58,277.044,9.946,99.753
25.77,278.944,9.945,99.746
25.96,280.845,9.945,99.739
26.15,282.745,9.944,99.732
26.34,284.645,9.943,99.725
26.54,286.546,9.943,99.719
26.73,288.446,9.942,99.712
26.92,290.346,9.941,99.704
27.11,292.247,9.94,99.697
27.31,294.147,9.94,99.689
27.49,296.048,9.939,99.682
27.68,297.948,9.938,99.674
27.87,299.848,9.937,99.666
28.06,301.749,9.937,99.658
28.25,303.649,9.936,99.65
28.44,305.549,9.935,99.642
28.63,307.45,9.934,99.633
28.82,309.35,9.933,99.624
29.01,311.25,9.932,99.616
29.2,313.151,9.931,99.607
29.38,315.051,9.931,99.598
29.58,316.951,9.93,99.588
29.77,318.852,9.929,99.579
29.96,320.752,9.928,99.569
30.14,322.652,9.927,99.559
30.33,324.553,9.926,99.549
30.52,326.453,9.925,99.538
30.72,328.353,9.923,99.527
30.91,330.254,9.922,99.517
31.1,332.154,9.921,99.505
31.3,334.054,9.92,99.494
31.48,335.955,9.919,99.482
31.67,337.855,9.918,99.47
31.86,339.755,9.917,99.457
32.05,341.656,9.915,99.445
32.24,343.556,9.914,99.431
32.43,345.456,9.913,99.418
32.62,347.357,9.911,99.404
32.81,349.257,9.91,99.389
33,351.157,9.908,99.374
33.19,353.058,9.907,99.359
33.38,354.958,9.905,99.342
33.57,356.858,9.903,99.325
33.76,358.759,9.902,99.307
33.94,360.659,9.9,99.289
34.14,362.559,9.898,99.27
34.33,364.46,9.896,99.25
34.52,366.36,9.894,99.23
34.71,368.26,9.892,99.209
34.9,370.161,9.89,99.188
35.09,372.061,9.888,99.167
35.28,373.961,9.885,99.145
35.47,375.862,9.883,99.124
35.66,377.762,9.881,99.1
35.85,379.662,9.878,99.076
36.04,381.563,9.876,99.051
36.23,383.463,9.873,99.025
36.43,385.363,9.871,98.998
36.62,387.264,9.868,98.971
36.81,389.164,9.865,98.943
36.99,391.064,9.862,98.914
37.18,392.965,9.859,98.885
37.37,394.865,9.856,98.854
37.56,396.765,9.853,98.823
37.75,398.666,9.85,98.79
37.94,400.566,9.846,98.755
38.13,402.467,9.843,98.72
38.31,404.367,9.839,98.684
38.51,406.267,9.836,98.645
38.69,408.168,9.831,98.604
38.89,410.068,9.827,98.56
39.08,411.968,9.823,98.514
39.27,413.869,9.818,98.466
39.46,415.769,9.813,98.415
39.64,417.669,9.807,98.36
39.84,419.57,9.801,98.301
40.03,421.47,9.795,98.236
40.22,423.37,9.788,98.166
40.41,425.271,9.781,98.093
40.61,427.171,9.773,98.016
40.79,429.071,9.765,97.937
40.98,430.972,9.756,97.851
41.17,432.872,9.747,97.761
41.36,434.772,9.738,97.663
41.55,436.673,9.727,97.557
41.75,438.573,9.716,97.444
41.93,440.473,9.705,97.331
42.12,442.374,9.692,97.21
42.31,444.274,9.68,97.081
42.5,446.174,9.666,96.947
42.69,448.075,9.652,96.804
42.88,449.975,9.637,96.651
43.07,451.875,9.621,96.491
43.26,453.776,9.603,96.315
43.45,455.676,9.585,96.129
43.64,457.576,9.564,95.924
43.83,459.477,9.54,95.68
44.02,461.377,9.511,95.394
44.21,463.277,9.478,95.06
44.4,465.178,9.44,94.682
44.59,467.078,9.398,94.254
44.78,468.978,9.35,93.779
44.97,470.879,9.297,93.241
45.16,472.779,9.238,92.653
45.35,474.679,9.169,91.957
45.54,476.58,9.093,91.193
45.73,478.48,9.005,90.313
45.91,480.38,8.914,89.399
46.11,482.281,8.814,88.397
46.3,484.181,8.692,87.181
46.49,486.081,8.562,85.877
46.69,487.982,8.398,84.224
46.87,489.882,8.238,82.62
47.06,491.782,8.034,80.58
47.24,493.683,7.813,78.36
47.44,495.583,7.559,75.813
47.63,497.483,7.268,72.893
47.82,499.384,6.929,69.493
48.01,501.284,6.558,65.771
48.2,503.184,6.148,61.664
48.39,505.085,5.698,57.143
48.58,506.985,5.202,52.176
48.77,508.886,4.661,46.748
48.96,510.786,4.079,40.913
49.15,512.686,3.479,34.894
49.34,514.587,2.852,28.604
49.53,516.487,2.274,22.81
49.72,518.387,1.733,17.386
49.91,520.288,1.244,12.477
50.1,522.188,0.8470000,8.493
50.29,524.088,0.5470000,5.482
50.48,525.989,0.3510000,3.517
50.67,527.889,0.2350000,2.354
50.86,529.789,0.1780000,1.787
51.05,531.69,0.1590000,1.59
51.24,533.59,0.1470000,1.478
51.43,535.49,0.1410000,1.417
51.62,537.391,0.1390000,1.39
51.81,539.291,0.1370000,1.378
52,541.191,0.1370000,1.373
52.19,543.092,0.1370000,1.371
52.38,544.992,0.1370000,1.369
52.57,546.892,0.1360000,1.368
52.76,548.793,0.1360000,1.368
52.95,550.693,0.1360000,1.367
53.14,552.593,0.1360000,1.367
53.33,554.494,0.1360000,1.366
53.52,556.394,0.1360000,1.366
53.71,558.294,0.1360000,1.365
53.89,560.195,0.1360000,1.365
54.09,562.095,0.1360000,1.364
54.28,563.995,0.1360000,1.364
54.46,565.896,0.1360000,1.363
54.65,567.796,0.1360000,1.363
54.84,569.696,0.1360000,1.362
55.03,571.597,0.1360000,1.362
55.23,573.497,0.1360000,1.361
55.42,575.397,0.1360000,1.36
55.61,577.298,0.1360000,1.359
55.79,579.198,0.1350000,1.358
55.99,581.098,0.1350000,1.357
56.17,582.999,0.1350000,1.355
56.36,584.899,0.1350000,1.352
56.55,586.799,0.1350000,1.349
56.74,588.7,0.1340000,1.346
56.87,590,0.1340000,1.345