File: R/rHDPE_App/app/www/Output/TGA/Condensed_Data/Resin8_0__1.csv
0.4300000,30,19.915,100.008,0.0050251
0.8000000,32.3004,19.917,100.019,0.0055046
1.08,34.6008,19.918,100.024,0.0040956
1.35,36.9012,19.919,100.026,-0.0003591
1.6,39.2016,19.919,100.029,0.0010464
1.85,41.5021,19.92,100.031,-0.0000981
2.1,43.8025,19.92,100.033,-0.0000486
2.34,46.1029,19.921,100.035,0.0001927
2.58,48.4033,19.921,100.037,0.0010040
2.82,50.7037,19.921,100.038,0.0000000
3.06,53.0041,19.922,100.04,0.0011793
3.29,55.3045,19.922,100.042,0.0007516
3.53,57.6049,19.922,100.044,0.0009346
3.76,59.9053,19.923,100.045,0.0004191
4,62.2058,19.923,100.046,0.0006957
4.23,64.5062,19.923,100.048,0.0007872
4.46,66.8066,19.923,100.049,0.0004618
4.7,69.107,19.924,100.05,0.0009682
4.93,71.4074,19.924,100.051,0.0003677
5.16,73.7078,19.924,100.052,-0.0000459
5.39,76.0082,19.924,100.054,0.0007341
5.62,78.3086,19.924,100.054,0.0001834
5.85,80.609,19.925,100.055,0.0004123
6.08,82.9094,19.925,100.056,0.0000915
6.31,85.2099,19.925,100.056,-0.0002289
6.54,87.5103,19.925,100.056,0.0003663
6.77,89.8107,19.925,100.057,-0.0003202
7,92.1111,19.925,100.057,-0.0001830
7.23,94.4115,19.925,100.057,-0.0000457
7.46,96.7119,19.925,100.057,-0.0004118
7.69,99.0123,19.925,100.056,0.0000000
7.92,101.313,19.925,100.056,-0.0001373
8.15,103.613,19.925,100.056,-0.0000915
8.38,105.914,19.925,100.056,0.0000915
8.61,108.214,19.925,100.055,-0.0006416
8.84,110.514,19.925,100.055,0.0000914
9.07,112.815,19.924,100.054,-0.0004581
9.3,115.115,19.924,100.053,-0.0006870
9.53,117.416,19.924,100.052,-0.0005958
9.76,119.716,19.924,100.052,-0.0005500
9.99,122.016,19.924,100.051,-0.0000917
10.22,124.317,19.924,100.05,-0.0005497
10.45,126.617,19.923,100.049,-0.0006881
10.68,128.918,19.923,100.048,-0.0001833
10.91,131.218,19.923,100.047,-0.0006403
11.14,133.518,19.923,100.046,-0.0004588
11.37,135.819,19.922,100.044,0.0001374
11.6,138.119,19.922,100.042,-0.0018273
11.83,140.42,19.921,100.038,-0.0024124
12.06,142.72,19.92,100.032,-0.0030372
12.29,145.021,19.919,100.026,-0.0023658
12.52,147.321,19.918,100.021,-0.0015585
12.75,149.621,19.917,100.017,-0.0018445
12.98,151.922,19.916,100.014,-0.0008738
13.21,154.222,19.916,100.011,-0.0006438
13.44,156.523,19.915,100.009,-0.0007805
13.67,158.823,19.915,100.006,-0.0008263
13.9,161.123,19.914,100.004,-0.0010548
14.13,163.424,19.914,100.002,-0.0007791
14.36,165.724,19.914,100,-0.0010539
14.59,168.025,19.913,99.997,-0.0016976
14.82,170.325,19.913,99.995,-0.0010992
15.05,172.625,19.912,99.992,-0.0012370
15.28,174.926,19.912,99.989,-0.0011004
15.51,177.226,19.911,99.987,-0.0012820
15.74,179.527,19.91,99.984,-0.0013723
15.97,181.827,19.91,99.981,-0.0012369
16.2,184.128,19.909,99.977,-0.0017860
16.43,186.428,19.908,99.974,-0.0012363
16.66,188.728,19.908,99.97,-0.0018327
16.89,191.029,19.907,99.967,-0.0022059
17.12,193.329,19.906,99.963,-0.0016007
17.35,195.63,19.905,99.959,-0.0019245
17.58,197.93,19.905,99.954,-0.0018349
17.82,200.23,19.904,99.95,-0.0017857
18.04,202.531,19.903,99.946,-0.0024270
18.28,204.831,19.902,99.942,-0.0017859
18.51,207.132,19.901,99.937,-0.0020608
18.74,209.432,19.9,99.933,-0.0020180
18.97,211.732,19.899,99.928,-0.0020586
19.2,214.033,19.898,99.923,-0.0025234
19.43,216.333,19.897,99.918,-0.0022491
19.66,218.634,19.896,99.913,-0.0021049
19.89,220.934,19.895,99.907,-0.0025226
20.12,223.235,19.894,99.902,-0.0018322
20.35,225.535,19.893,99.897,-0.0027523
20.58,227.835,19.892,99.891,-0.0017407
20.81,230.136,19.891,99.886,-0.0023334
21.04,232.436,19.89,99.881,-0.0027531
21.27,234.737,19.889,99.875,-0.0022894
21.5,237.037,19.888,99.869,-0.0026106
21.73,239.337,19.886,99.863,-0.0025665
21.96,241.638,19.885,99.857,-0.0025121
22.19,243.938,19.884,99.851,-0.0022929
22.42,246.239,19.883,99.845,-0.0022405
22.65,248.539,19.882,99.839,-0.0026106
22.88,250.839,19.88,99.833,-0.0027971
23.11,253.14,19.879,99.827,-0.0025211
23.34,255.44,19.878,99.821,-0.0027909
23.57,257.741,19.877,99.814,-0.0024223
23.8,260.041,19.875,99.808,-0.0028362
24.03,262.341,19.874,99.801,-0.0032979
24.26,264.642,19.873,99.795,-0.0023416
24.49,266.942,19.871,99.788,-0.0032967
24.72,269.243,19.87,99.781,-0.0028404
24.95,271.543,19.869,99.774,-0.0030230
25.18,273.844,19.867,99.767,-0.0032545
25.41,276.144,19.866,99.76,-0.0026556
25.64,278.444,19.864,99.752,-0.0034799
25.87,280.745,19.863,99.745,-0.0033932
26.1,283.045,19.861,99.737,-0.0029332
26.33,285.346,19.86,99.73,-0.0040640
26.56,287.646,19.858,99.722,-0.0029817
26.79,289.946,19.857,99.714,-0.0036678
27.02,292.247,19.855,99.705,-0.0036239
27.25,294.547,19.853,99.697,-0.0035302
27.48,296.848,19.851,99.687,-0.0043618
27.71,299.148,19.85,99.678,-0.0036172
27.94,301.448,19.848,99.67,-0.0039392
28.17,303.749,19.846,99.661,-0.0046330
28.4,306.049,19.844,99.651,-0.0038447
28.63,308.35,19.842,99.641,-0.0045354
28.87,310.65,19.84,99.631,-0.0045288
29.09,312.951,19.838,99.621,-0.0042544
29.33,315.251,19.836,99.611,-0.0050339
29.56,317.551,19.834,99.6,-0.0042148
29.78,319.852,19.832,99.589,-0.0051759
30.02,322.152,19.83,99.579,-0.0050370
30.25,324.453,19.827,99.567,-0.0049936
30.48,326.753,19.825,99.554,-0.0057004
30.71,329.053,19.822,99.542,-0.0053376
30.93,331.354,19.82,99.529,-0.0059633
31.17,333.654,19.817,99.515,-0.0057161
31.39,335.955,19.814,99.502,-0.0061411
31.63,338.255,19.812,99.487,-0.0066452
31.86,340.555,19.808,99.472,-0.0063118
32.08,342.856,19.805,99.457,-0.0069636
32.32,345.156,19.802,99.44,-0.0074995
32.54,347.457,19.799,99.423,-0.0070880
32.78,349.757,19.795,99.406,-0.0078683
33.01,352.058,19.792,99.388,-0.0080615
33.24,354.358,19.788,99.369,-0.0085087
33.47,356.658,19.784,99.35,-0.0079285
33.7,358.959,19.78,99.33,-0.0092406
33.93,361.259,19.776,99.309,-0.0094150
34.16,363.56,19.772,99.287,-0.0096488
34.39,365.86,19.767,99.264,-0.0104186
34.62,368.16,19.762,99.241,-0.0103022
34.85,370.461,19.758,99.216,-0.0114301
35.08,372.761,19.752,99.19,-0.0119897
35.31,375.062,19.747,99.161,-0.0129286
35.54,377.362,19.74,99.13,-0.0140845
35.77,379.662,19.734,99.096,-0.0152428
36,381.963,19.726,99.059,-0.0169049
36.23,384.263,19.718,99.017,-0.0189241
36.46,386.564,19.709,98.971,-0.0213136
36.69,388.864,19.698,98.919,-0.0243679
36.92,391.164,19.686,98.859,-0.0274530
37.15,393.465,19.673,98.792,-0.0312672
37.38,395.765,19.658,98.714,-0.0360550
37.61,398.066,19.64,98.625,-0.0419495
37.84,400.366,19.619,98.522,-0.0478782
38.07,402.667,19.596,98.403,-0.0579770
38.3,404.967,19.565,98.248,-0.0762920
38.53,407.267,19.526,98.054,-0.0922113
38.76,409.568,19.48,97.821,-0.1064430
38.99,411.868,19.427,97.554,-0.1216800
39.22,414.169,19.367,97.257,-0.1358520
39.45,416.469,19.302,96.927,-0.1519200
39.68,418.769,19.231,96.571,-0.1625920
39.91,421.07,19.153,96.18,-0.1821510
40.14,423.37,19.069,95.758,-0.1899230
40.37,425.671,18.979,95.309,-0.2043420
40.6,427.971,18.883,94.825,-0.2155220
40.83,430.271,18.781,94.312,-0.2325950
41.06,432.572,18.666,93.732,-0.2726810
41.29,434.872,18.53,93.054,-0.3188150
41.52,437.173,18.369,92.242,-0.3917350
41.75,439.473,18.166,91.226,-0.5022440
41.98,441.774,17.916,89.966,-0.5920740
42.21,444.074,17.609,88.429,-0.7585680
42.44,446.374,17.234,86.545,-0.8670480
42.67,448.675,16.792,84.322,-1.08373
42.9,450.975,16.253,81.619,-1.33791
43.13,453.276,15.609,78.384,-1.52728
43.36,455.576,14.84,74.521,-1.79252
43.59,457.876,13.894,69.772,-2.28716
43.82,460.177,12.713,63.842,-2.82479
44.05,462.477,11.311,56.8,-3.28125
44.28,464.778,9.677,48.593,-3.74376
44.51,467.078,7.876,39.553,-4.02799
44.74,469.378,6.003,30.144,-4.11396
44.97,471.679,4.186,21.023,-3.81541
45.2,473.979,2.581,12.963,-3.12739
45.43,476.28,1.385,6.957,-2.12636
45.66,478.58,0.6420000,3.223,-1.125
45.88,480.881,0.2970000,1.493,-0.3286800
46.11,483.181,0.1900000,0.9550000,-0.1006710
46.34,485.481,0.1720000,0.8620000,-0.0245528
46.58,487.782,0.1640000,0.8240000,-0.0095131
46.81,490.082,0.1610000,0.8100000,-0.0030345
47.04,492.383,0.1600000,0.8050000,-0.0008921
47.27,494.683,0.1600000,0.8040000,-0.0003857
47.5,496.983,0.1600000,0.8030000,-0.0000600
47.73,499.284,0.1600000,0.8030000,-0.0000599
47.96,501.584,0.1600000,0.8030000,-0.0004577
48.19,503.885,0.1600000,0.8030000,0.0000202
48.41,506.185,0.1600000,0.8030000,0.0000586
48.64,508.485,0.1600000,0.8030000,0.0002565
48.88,510.786,0.1600000,0.8040000,-0.0005107
49.11,513.086,0.1600000,0.8030000,-0.0000892
49.34,515.387,0.1600000,0.8030000,0.0000314
49.56,517.687,0.1600000,0.8030000,0.0003513
49.79,519.987,0.1600000,0.8030000,0.0001592
50.03,522.288,0.1600000,0.8030000,0.0000075
50.26,524.588,0.1600000,0.8030000,0.0001860
50.49,526.889,0.1600000,0.8030000,0.0005545
50.71,529.189,0.1600000,0.8030000,0.0001181
50.94,531.49,0.1600000,0.8040000,0.0001675
51.17,533.79,0.1600000,0.8040000,-0.0000829
51.41,536.09,0.1600000,0.8040000,0.0001821
51.64,538.391,0.1600000,0.8040000,0.0000541
51.86,540.691,0.1600000,0.8040000,-0.0000101
52.09,542.992,0.1600000,0.8030000,-0.0002279
52.33,545.292,0.1600000,0.8030000,-0.0001614
52.56,547.592,0.1600000,0.8030000,0.0003531
52.79,549.893,0.1600000,0.8030000,-0.0003636
53.01,552.193,0.1600000,0.8020000,-0.0003012
53.24,554.494,0.1600000,0.8020000,-0.0003268
53.47,556.794,0.1600000,0.8020000,-0.0001755
53.7,559.094,0.1600000,0.8020000,-0.0000645
53.94,561.395,0.1600000,0.8010000,-0.0002697
54.16,563.695,0.1590000,0.8010000,-0.0000626
54.39,565.996,0.1590000,0.8000000,-0.0002316
54.62,568.296,0.1590000,0.7990000,-0.0004263
54.85,570.597,0.1590000,0.7990000,-0.0003156
55.08,572.897,0.1590000,0.7980000,-0.0002758
55.31,575.197,0.1590000,0.7980000,-0.0005262
55.54,577.498,0.1590000,0.7970000,-0.0000452
55.77,579.798,0.1580000,0.7960000,-0.0004327
56,582.099,0.1580000,0.7940000,-0.0007349
56.23,584.399,0.1580000,0.7920000,-0.0008956
56.46,586.699,0.1570000,0.7910000,-0.0009537
56.69,589,0.1570000,0.7880000,-0.0011664
56.79,590,0.1570000,0.7870000,-0.0009483