File: R/rHDPE_App/app/www/Output/TGA/Condensed_Data/Resin5_2__1.csv
0.9800000,30,15.153,100.035,0.0043806
1.23,32.2004,15.154,100.042,0.0048702
1.48,34.4008,15.155,100.047,0.0033282
1.72,36.6012,15.156,100.05,-0.0005918
1.96,38.8016,15.156,100.054,0.0006825
2.19,41.002,15.157,100.057,0.0007735
2.42,43.2024,15.157,100.06,0.0006241
2.65,45.4028,15.158,100.064,0.0016709
2.88,47.6031,15.158,100.067,0.0013751
3.11,49.8035,15.159,100.07,0.0010381
3.34,52.0039,15.159,100.073,0.0014093
3.56,54.2043,15.16,100.076,0.0016838
3.78,56.4047,15.16,100.079,0.0011186
4.01,58.6051,15.16,100.081,0.0011620
4.23,60.8055,15.161,100.084,0.0006485
4.45,63.0059,15.161,100.086,0.0012466
4.68,65.2063,15.162,100.089,0.0008291
4.9,67.4067,15.162,100.091,0.0008741
5.12,69.6071,15.162,100.093,0.0012414
5.34,71.8075,15.163,100.096,0.0011939
5.56,74.0079,15.163,100.098,0.0011008
5.78,76.2083,15.163,100.099,0.0003207
6,78.4086,15.163,100.101,0.0003664
6.22,80.609,15.164,100.103,0.0006866
6.44,82.8094,15.164,100.104,0.0005034
6.66,85.0098,15.164,100.105,0.0007783
6.88,87.2102,15.164,100.107,0.0005489
7.1,89.4106,15.164,100.108,0.0005488
7.32,91.611,15.165,100.109,-0.0000000
7.54,93.8114,15.165,100.11,0.0005036
7.76,96.0118,15.165,100.11,0.0004576
7.98,98.2122,15.165,100.111,0.0000458
8.2,100.413,15.165,100.111,-0.0000458
8.42,102.613,15.165,100.112,0.0000916
8.64,104.813,15.165,100.112,0.0004578
8.86,107.014,15.165,100.112,-0.0000458
9.08,109.214,15.165,100.112,-0.0000000
9.3,111.415,15.165,100.112,-0.0005503
9.52,113.615,15.165,100.113,-0.0001834
9.74,115.815,15.165,100.113,0.0005957
9.96,118.016,15.165,100.112,0.0001834
10.18,120.216,15.165,100.112,-0.0000458
10.4,122.417,15.165,100.112,0.0000458
10.62,124.617,15.165,100.112,-0.0001835
10.84,126.817,15.165,100.112,-0.0001836
11.06,129.018,15.165,100.113,0.0001833
11.28,131.218,15.165,100.113,0.0002291
11.5,133.418,15.165,100.112,-0.0004566
11.72,135.619,15.165,100.111,-0.0008193
11.94,137.819,15.164,100.108,-0.0016792
12.16,140.02,15.164,100.103,-0.0023572
12.38,142.22,15.163,100.097,-0.0025084
12.6,144.42,15.162,100.093,-0.0016063
12.82,146.621,15.162,100.089,-0.0020713
13.04,148.821,15.161,100.086,-0.0014719
13.26,151.022,15.161,100.083,-0.0011491
13.48,153.222,15.16,100.08,-0.0015615
13.7,155.422,15.16,100.076,-0.0018373
13.92,157.623,15.159,100.073,-0.0014683
14.14,159.823,15.159,100.07,-0.0017894
14.36,162.024,15.158,100.066,-0.0019240
14.58,164.224,15.158,100.063,-0.0013743
14.8,166.424,15.157,100.059,-0.0015582
15.02,168.625,15.156,100.055,-0.0015575
15.24,170.825,15.156,100.051,-0.0017426
15.47,173.026,15.155,100.047,-0.0017878
15.68,175.226,15.154,100.042,-0.0027015
15.9,177.426,15.154,100.037,-0.0019701
16.13,179.627,15.153,100.033,-0.0016493
16.35,181.827,15.152,100.028,-0.0019698
16.57,184.028,15.152,100.023,-0.0021998
16.78,186.228,15.151,100.018,-0.0023838
17,188.428,15.15,100.013,-0.0026581
17.23,190.629,15.149,100.007,-0.0029784
17.45,192.829,15.148,100.001,-0.0022460
17.67,195.029,15.147,99.996,-0.0029756
17.89,197.23,15.147,99.99,-0.0031150
18.11,199.43,15.146,99.984,-0.0026128
18.33,201.631,15.145,99.978,-0.0027505
18.55,203.831,15.144,99.971,-0.0031593
18.77,206.031,15.143,99.965,-0.0028388
18.99,208.232,15.142,99.958,-0.0024771
19.21,210.432,15.141,99.952,-0.0033003
19.43,212.633,15.14,99.945,-0.0026082
19.65,214.833,15.139,99.938,-0.0031608
19.87,217.033,15.138,99.932,-0.0035730
20.09,219.234,15.137,99.924,-0.0029740
20.31,221.434,15.136,99.917,-0.0032563
20.53,223.635,15.134,99.91,-0.0030686
20.75,225.835,15.133,99.902,-0.0034783
20.97,228.035,15.132,99.895,-0.0031613
21.19,230.236,15.131,99.887,-0.0034344
21.41,232.436,15.13,99.88,-0.0039349
21.63,234.637,15.129,99.872,-0.0035266
21.85,236.837,15.127,99.864,-0.0037557
22.07,239.037,15.126,99.856,-0.0035289
22.29,241.238,15.125,99.848,-0.0035321
22.51,243.438,15.124,99.84,-0.0037149
22.73,245.639,15.123,99.831,-0.0038507
22.95,247.839,15.121,99.823,-0.0037587
23.17,250.039,15.12,99.815,-0.0037115
23.39,252.24,15.119,99.806,-0.0042621
23.61,254.44,15.117,99.798,-0.0035295
23.83,256.64,15.116,99.789,-0.0036205
24.05,258.841,15.115,99.78,-0.0042582
24.27,261.041,15.113,99.771,-0.0038462
24.49,263.242,15.112,99.762,-0.0038511
24.71,265.442,15.111,99.753,-0.0041232
24.93,267.642,15.109,99.743,-0.0038475
25.16,269.843,15.108,99.735,-0.0039835
25.38,272.043,15.107,99.725,-0.0043072
25.59,274.244,15.105,99.716,-0.0041247
25.82,276.444,15.104,99.707,-0.0040788
26.03,278.644,15.102,99.697,-0.0042582
26.26,280.845,15.101,99.687,-0.0043956
26.48,283.045,15.099,99.677,-0.0043001
26.69,285.246,15.098,99.667,-0.0045396
26.92,287.446,15.096,99.657,-0.0041209
27.13,289.646,15.095,99.647,-0.0044431
27.36,291.847,15.093,99.637,-0.0043538
27.58,294.047,15.092,99.627,-0.0043523
27.8,296.248,15.09,99.617,-0.0046703
28.02,298.448,15.088,99.606,-0.0046229
28.24,300.648,15.087,99.596,-0.0046678
28.46,302.849,15.085,99.586,-0.0049863
28.68,305.049,15.084,99.575,-0.0047567
28.89,307.25,15.082,99.565,-0.0044005
29.12,309.45,15.08,99.554,-0.0053571
29.34,311.65,15.079,99.543,-0.0048077
29.56,313.851,15.077,99.532,-0.0047248
29.78,316.051,15.076,99.521,-0.0049953
30,318.251,15.074,99.51,-0.0052246
30.22,320.452,15.072,99.499,-0.0052198
30.44,322.652,15.071,99.488,-0.0054924
30.66,324.853,15.069,99.477,-0.0049908
30.88,327.053,15.067,99.466,-0.0049514
31.1,329.253,15.066,99.455,-0.0054050
31.32,331.454,15.064,99.444,-0.0054447
31.54,333.654,15.062,99.432,-0.0050394
31.76,335.855,15.06,99.421,-0.0051264
31.98,338.055,15.059,99.409,-0.0054029
32.2,340.255,15.057,99.398,-0.0051722
32.42,342.456,15.055,99.386,-0.0053582
32.64,344.656,15.053,99.373,-0.0056756
32.86,346.857,15.051,99.361,-0.0051300
33.08,349.057,15.049,99.349,-0.0055434
33.3,351.257,15.048,99.336,-0.0052198
33.52,353.458,15.046,99.324,-0.0058587
33.74,355.658,15.044,99.311,-0.0060473
33.96,357.859,15.042,99.298,-0.0060864
34.18,360.059,15.04,99.284,-0.0065886
34.4,362.259,15.037,99.269,-0.0066850
34.62,364.46,15.035,99.254,-0.0068681
34.84,366.66,15.033,99.238,-0.0075578
35.06,368.861,15.03,99.222,-0.0075521
35.28,371.061,15.028,99.205,-0.0081532
35.5,373.261,15.025,99.187,-0.0085118
35.72,375.462,15.022,99.168,-0.0090626
35.94,377.662,15.019,99.147,-0.0097070
36.16,379.862,15.016,99.125,-0.0109890
36.38,382.063,15.012,99.101,-0.0111661
36.6,384.263,15.008,99.075,-0.0123055
36.82,386.464,15.004,99.047,-0.0131314
37.04,388.664,14.999,99.016,-0.0147813
37.26,390.864,14.994,98.982,-0.0160315
37.48,393.065,14.988,98.944,-0.0183083
37.7,395.265,14.982,98.902,-0.0200018
37.92,397.466,14.975,98.857,-0.0218864
38.14,399.666,14.967,98.807,-0.0241432
38.36,401.866,14.959,98.752,-0.0260770
38.58,404.067,14.95,98.692,-0.0292582
38.8,406.267,14.94,98.624,-0.0329489
39.02,408.468,14.928,98.547,-0.0367674
39.24,410.668,14.915,98.461,-0.0414071
39.46,412.868,14.9,98.364,-0.0466605
39.68,415.069,14.884,98.255,-0.0521024
39.9,417.269,14.865,98.132,-0.0600860
40.12,419.47,14.843,97.988,-0.0711340
40.34,421.67,14.815,97.803,-0.0969903
40.56,423.87,14.779,97.561,-0.1190280
40.78,426.071,14.735,97.274,-0.1423400
41,428.271,14.685,96.944,-0.1561810
41.22,430.472,14.628,96.564,-0.1866980
41.44,432.672,14.561,96.127,-0.2100040
41.66,434.872,14.483,95.609,-0.2625380
41.88,437.073,14.388,94.979,-0.2729090
42.1,439.273,14.277,94.249,-0.3679950
42.32,441.473,14.146,93.386,-0.4273110
42.54,443.674,13.996,92.397,-0.4738550
42.76,445.874,13.812,91.18,-0.6592490
42.98,448.075,13.591,89.723,-0.7683950
43.2,450.275,13.327,87.976,-0.9300850
43.42,452.475,13.004,85.847,-1.02972
43.64,454.676,12.622,83.323,-1.29621
43.86,456.876,12.16,80.274,-1.51526
44.08,459.077,11.608,76.633,-1.8061
44.3,461.277,10.919,72.081,-2.26949
44.52,463.477,10.061,66.418,-2.59373
44.74,465.678,9.118,60.193,-2.8697
44.96,467.878,8.133,53.69,-3.27403
45.18,470.079,7.028,46.395,-3.24658
45.4,472.279,5.88,38.814,-3.37025
45.62,474.479,4.678,30.881,-3.57019
45.84,476.68,3.47,22.907,-3.50022
46.06,478.88,2.344,15.476,-3.08504
46.28,481.081,1.388,9.163,-2.41787
46.5,483.281,0.7100000,4.687,-1.54457
46.71,485.481,0.3480000,2.297,-0.6536830
46.93,487.682,0.2220000,1.466,-0.1555100
47.15,489.882,0.2000000,1.321,-0.0342739
47.38,492.083,0.1920000,1.267,-0.0151191
47.6,494.283,0.1890000,1.246,-0.0055686
47.82,496.483,0.1880000,1.238,-0.0020934
48.04,498.684,0.1870000,1.235,-0.0009728
48.26,500.884,0.1870000,1.234,-0.0004072
48.48,503.084,0.1870000,1.233,-0.0003587
48.7,505.285,0.1870000,1.233,-0.0004290
48.92,507.485,0.1870000,1.232,-0.0000759
49.14,509.686,0.1870000,1.232,-0.0003095
49.36,511.886,0.1870000,1.232,-0.0002774
49.58,514.086,0.1870000,1.232,-0.0001138
49.8,516.287,0.1870000,1.231,-0.0003506
50.02,518.487,0.1860000,1.231,-0.0000286
50.24,520.688,0.1860000,1.231,-0.0000665
50.46,522.888,0.1860000,1.23,-0.0002887
50.68,525.088,0.1860000,1.23,-0.0002328
50.9,527.289,0.1860000,1.23,-0.0002452
51.12,529.489,0.1860000,1.229,-0.0002877
51.34,531.69,0.1860000,1.229,-0.0002895
51.56,533.89,0.1860000,1.229,-0.0002365
51.78,536.09,0.1860000,1.228,0.0000880
52,538.291,0.1860000,1.228,-0.0004059
52.22,540.491,0.1860000,1.228,-0.0001336
52.44,542.692,0.1860000,1.227,-0.0001581
52.66,544.892,0.1860000,1.227,-0.0003960
52.88,547.092,0.1860000,1.227,-0.0003298
53.1,549.293,0.1860000,1.226,-0.0003456
53.32,551.493,0.1860000,1.225,-0.0005717
53.54,553.694,0.1860000,1.225,-0.0002640
53.76,555.894,0.1850000,1.224,-0.0002794
53.98,558.094,0.1850000,1.223,-0.0004302
54.2,560.295,0.1850000,1.222,-0.0005348
54.42,562.495,0.1850000,1.221,-0.0003706
54.64,564.695,0.1850000,1.22,-0.0007504
54.86,566.896,0.1850000,1.218,-0.0006668
55.08,569.096,0.1840000,1.217,-0.0005852
55.3,571.297,0.1840000,1.215,-0.0008293
55.52,573.497,0.1840000,1.214,-0.0008134
55.74,575.697,0.1840000,1.212,-0.0007342
55.96,577.898,0.1830000,1.21,-0.0009613
56.18,580.098,0.1830000,1.208,-0.0009308
56.4,582.299,0.1830000,1.205,-0.0011411
56.62,584.499,0.1820000,1.203,-0.0010330
56.84,586.699,0.1820000,1.201,-0.0010685
57.06,588.9,0.1820000,1.199,-0.0007733
57.17,590,0.1810000,1.198,-0.0010724