File: R/rHDPE_App/app/www/Output/TGA/Condensed_Data/Resin5_0__1.csv
1.04,30,19.037,100.017
1.26,31.9003,19.037,100.017
1.47,33.8007,19.037,100.017
1.68,35.701,19.037,100.017
1.88,37.6014,19.037,100.016
2.08,39.5017,19.037,100.016
2.28,41.402,19.037,100.016
2.48,43.3024,19.037,100.017
2.68,45.2027,19.037,100.017
2.88,47.1031,19.038,100.018
3.08,49.0034,19.038,100.019
3.27,50.9037,19.038,100.02
3.46,52.8041,19.038,100.021
3.66,54.7044,19.038,100.022
3.85,56.6048,19.039,100.023
4.04,58.5051,19.039,100.025
4.24,60.4054,19.039,100.026
4.43,62.3058,19.039,100.027
4.62,64.2061,19.039,100.027
4.81,66.1064,19.04,100.028
5,68.0068,19.04,100.029
5.19,69.9071,19.04,100.03
5.38,71.8075,19.04,100.031
5.57,73.7078,19.04,100.031
5.76,75.6081,19.04,100.032
5.95,77.5085,19.04,100.032
6.14,79.4088,19.04,100.033
6.33,81.3092,19.04,100.033
6.52,83.2095,19.041,100.034
6.71,85.1098,19.041,100.034
6.9,87.0102,19.041,100.035
7.1,88.9105,19.041,100.035
7.29,90.8109,19.041,100.035
7.48,92.7112,19.041,100.035
7.66,94.6115,19.041,100.035
7.85,96.5119,19.041,100.035
8.05,98.4122,19.041,100.035
8.24,100.313,19.041,100.035
8.42,102.213,19.041,100.035
8.61,104.113,19.041,100.035
8.8,106.014,19.041,100.034
8.99,107.914,19.041,100.034
9.18,109.814,19.041,100.034
9.37,111.715,19.04,100.033
9.56,113.615,19.04,100.032
9.75,115.515,19.04,100.032
9.94,117.416,19.04,100.031
10.13,119.316,19.04,100.031
10.33,121.216,19.04,100.03
10.52,123.117,19.04,100.029
10.7,125.017,19.04,100.029
10.9,126.917,19.04,100.028
11.08,128.818,19.039,100.028
11.28,130.718,19.039,100.028
11.47,132.618,19.039,100.027
11.66,134.519,19.039,100.027
11.85,136.419,19.039,100.026
12.04,138.319,19.039,100.024
12.23,140.22,19.038,100.022
12.42,142.12,19.038,100.018
12.6,144.02,19.037,100.013
12.79,145.921,19.036,100.008
12.98,147.821,19.035,100.004
13.17,149.721,19.034,100
13.36,151.622,19.033,99.996
13.55,153.522,19.033,99.993
13.75,155.422,19.032,99.989
13.94,157.323,19.031,99.985
14.13,159.223,19.031,99.981
14.32,161.123,19.03,99.977
14.51,163.024,19.029,99.973
14.7,164.924,19.028,99.968
14.89,166.824,19.027,99.963
15.08,168.725,19.026,99.959
15.27,170.625,19.025,99.953
15.46,172.525,19.024,99.948
15.65,174.426,19.023,99.943
15.84,176.326,19.022,99.938
16.03,178.226,19.021,99.932
16.22,180.127,19.02,99.926
16.41,182.027,19.019,99.92
16.6,183.927,19.018,99.914
16.79,185.828,19.017,99.908
16.98,187.728,19.015,99.902
17.17,189.629,19.014,99.895
17.36,191.529,19.013,99.889
17.55,193.429,19.012,99.882
17.74,195.33,19.01,99.875
17.93,197.23,19.009,99.868
18.12,199.13,19.008,99.861
18.31,201.031,19.006,99.854
18.5,202.931,19.005,99.847
18.69,204.831,19.004,99.839
18.88,206.732,19.002,99.832
19.07,208.632,19.001,99.825
19.26,210.532,18.999,99.817
19.45,212.433,18.998,99.809
19.64,214.333,18.996,99.802
19.83,216.233,18.995,99.794
20.02,218.134,18.994,99.787
20.21,220.034,18.992,99.779
20.4,221.934,18.991,99.771
20.59,223.835,18.989,99.763
20.78,225.735,18.988,99.756
20.97,227.635,18.986,99.748
21.16,229.536,18.985,99.74
21.35,231.436,18.983,99.733
21.54,233.336,18.982,99.725
21.73,235.237,18.98,99.717
21.93,237.137,18.979,99.709
22.12,239.037,18.977,99.701
22.31,240.938,18.976,99.693
22.49,242.838,18.974,99.685
22.68,244.738,18.973,99.677
22.88,246.639,18.971,99.67
23.07,248.539,18.97,99.662
23.26,250.439,18.968,99.654
23.44,252.34,18.967,99.646
23.64,254.24,18.965,99.638
23.83,256.14,18.964,99.63
24.02,258.041,18.962,99.622
24.21,259.941,18.961,99.614
24.4,261.841,18.959,99.605
24.59,263.742,18.958,99.597
24.78,265.642,18.956,99.589
24.97,267.542,18.954,99.581
25.16,269.443,18.953,99.573
25.35,271.343,18.951,99.564
25.54,273.243,18.95,99.556
25.73,275.144,18.948,99.547
25.92,277.044,18.946,99.539
26.11,278.944,18.945,99.53
26.3,280.845,18.943,99.521
26.49,282.745,18.941,99.513
26.68,284.645,18.94,99.504
26.87,286.546,18.938,99.495
27.06,288.446,18.936,99.486
27.25,290.346,18.935,99.477
27.44,292.247,18.933,99.468
27.63,294.147,18.931,99.459
27.82,296.048,18.93,99.451
28.01,297.948,18.928,99.442
28.2,299.848,18.926,99.433
28.39,301.749,18.924,99.424
28.58,303.649,18.923,99.415
28.77,305.549,18.921,99.405
28.96,307.45,18.919,99.396
29.15,309.35,18.917,99.387
29.34,311.25,18.916,99.377
29.53,313.151,18.914,99.368
29.72,315.051,18.912,99.359
29.91,316.951,18.91,99.349
30.1,318.852,18.909,99.34
30.29,320.752,18.907,99.331
30.48,322.652,18.905,99.321
30.67,324.553,18.903,99.311
30.86,326.453,18.901,99.302
31.05,328.353,18.899,99.292
31.24,330.254,18.898,99.282
31.43,332.154,18.896,99.272
31.62,334.054,18.894,99.262
31.81,335.955,18.892,99.252
32,337.855,18.89,99.242
32.19,339.755,18.888,99.232
32.38,341.656,18.886,99.222
32.57,343.556,18.884,99.212
32.76,345.456,18.882,99.202
32.95,347.357,18.88,99.191
33.14,349.257,18.878,99.181
33.33,351.157,18.876,99.171
33.52,353.058,18.874,99.16
33.71,354.958,18.872,99.149
33.9,356.858,18.87,99.138
34.09,358.759,18.868,99.126
34.28,360.659,18.866,99.114
34.47,362.559,18.863,99.101
34.66,364.46,18.861,99.088
34.85,366.36,18.858,99.074
35.04,368.26,18.855,99.059
35.23,370.161,18.852,99.043
35.42,372.061,18.849,99.026
35.61,373.961,18.845,99.009
35.8,375.862,18.842,98.99
35.99,377.762,18.838,98.969
36.18,379.662,18.834,98.947
36.37,381.563,18.829,98.924
36.56,383.463,18.824,98.898
36.75,385.363,18.819,98.869
36.94,387.264,18.813,98.838
37.13,389.164,18.807,98.804
37.32,391.064,18.799,98.767
37.51,392.965,18.792,98.726
37.7,394.865,18.783,98.681
37.89,396.765,18.774,98.632
38.08,398.666,18.764,98.579
38.27,400.566,18.753,98.521
38.46,402.467,18.741,98.457
38.65,404.367,18.727,98.388
38.84,406.267,18.713,98.311
39.03,408.168,18.696,98.226
39.22,410.068,18.678,98.131
39.41,411.968,18.658,98.023
39.6,413.869,18.632,97.887
39.79,415.769,18.6,97.721
39.98,417.669,18.566,97.539
40.17,419.57,18.528,97.339
40.36,421.47,18.485,97.116
40.55,423.37,18.437,96.865
40.74,425.271,18.383,96.581
40.93,427.171,18.324,96.267
41.12,429.071,18.255,95.905
41.31,430.972,18.175,95.486
41.5,432.872,18.082,94.999
41.69,434.772,17.976,94.443
41.88,436.673,17.855,93.806
42.07,438.573,17.715,93.072
42.26,440.473,17.552,92.214
42.45,442.374,17.353,91.166
42.64,444.274,17.123,89.958
42.83,446.174,16.859,88.571
43.02,448.075,16.555,86.978
43.21,449.975,16.2,85.11
43.4,451.875,15.79,82.954
43.59,453.776,15.312,80.445
43.79,455.676,14.755,77.519
43.98,457.576,14.113,74.148
44.16,459.477,13.381,70.298
44.36,461.377,12.546,65.911
44.54,463.277,11.595,60.914
44.74,465.178,10.532,55.332
44.93,467.078,9.383,49.294
45.11,468.978,8.156,42.848
45.31,470.879,6.854,36.01
45.49,472.779,5.496,28.875
45.69,474.679,4.158,21.844
45.88,476.58,2.969,15.598
46.06,478.48,1.937,10.174
46.25,480.38,1.155,6.065
46.44,482.281,0.6550000,3.44
46.63,484.181,0.3800000,1.996
46.82,486.081,0.2660000,1.4
47.01,487.982,0.2370000,1.245
47.2,489.882,0.2270000,1.194
47.39,491.782,0.2220000,1.166
47.58,493.683,0.2200000,1.155
47.77,495.583,0.2190000,1.15
47.96,497.483,0.2180000,1.148
48.15,499.384,0.2180000,1.146
48.34,501.284,0.2180000,1.146
48.53,503.184,0.2180000,1.146
48.72,505.085,0.2180000,1.145
48.91,506.985,0.2180000,1.145
49.1,508.886,0.2180000,1.145
49.29,510.786,0.2180000,1.145
49.48,512.686,0.2180000,1.144
49.67,514.587,0.2180000,1.144
49.86,516.487,0.2180000,1.143
50.05,518.387,0.2180000,1.143
50.24,520.288,0.2180000,1.143
50.43,522.188,0.2170000,1.143
50.62,524.088,0.2170000,1.142
50.81,525.989,0.2170000,1.142
51,527.889,0.2170000,1.142
51.19,529.789,0.2170000,1.142
51.38,531.69,0.2170000,1.141
51.57,533.59,0.2170000,1.141
51.76,535.49,0.2170000,1.141
51.95,537.391,0.2170000,1.141
52.14,539.291,0.2170000,1.14
52.33,541.191,0.2170000,1.14
52.52,543.092,0.2170000,1.14
52.71,544.992,0.2170000,1.139
52.9,546.892,0.2170000,1.139
53.09,548.793,0.2170000,1.139
53.28,550.693,0.2170000,1.138
53.47,552.593,0.2170000,1.138
53.66,554.494,0.2160000,1.137
53.85,556.394,0.2160000,1.137
54.04,558.294,0.2160000,1.136
54.23,560.195,0.2160000,1.135
54.42,562.095,0.2160000,1.134
54.61,563.995,0.2160000,1.133
54.8,565.896,0.2160000,1.132
54.99,567.796,0.2150000,1.131
55.18,569.696,0.2150000,1.13
55.37,571.597,0.2150000,1.129
55.56,573.497,0.2150000,1.127
55.75,575.397,0.2140000,1.126
55.94,577.298,0.2140000,1.124
56.13,579.198,0.2140000,1.122
56.32,581.098,0.2130000,1.12
56.51,582.999,0.2130000,1.117
56.7,584.899,0.2120000,1.115
56.89,586.799,0.2120000,1.112
57.08,588.7,0.2110000,1.109
57.21,590,0.2110000,1.107