File: R/rHDPE_App/app/www/Output/TGA/Condensed_Data/Resin8_1_.csv
1.21,30,15.55,100.037
1.43,31.9003,15.551,100.04
1.63,33.8007,15.551,100.043
1.84,35.701,15.551,100.046
2.04,37.6014,15.552,100.048
2.24,39.5017,15.552,100.05
2.44,41.402,15.552,100.052
2.63,43.3024,15.553,100.053
2.83,45.2027,15.553,100.055
3.02,47.1031,15.553,100.057
3.22,49.0034,15.553,100.059
3.41,50.9037,15.554,100.061
3.61,52.8041,15.554,100.063
3.8,54.7044,15.554,100.065
3.99,56.6048,15.555,100.067
4.18,58.5051,15.555,100.069
4.38,60.4054,15.555,100.071
4.57,62.3058,15.556,100.073
4.76,64.2061,15.556,100.074
4.95,66.1064,15.556,100.076
5.14,68.0068,15.556,100.078
5.33,69.9071,15.557,100.079
5.52,71.8075,15.557,100.081
5.71,73.7078,15.557,100.082
5.9,75.6081,15.557,100.084
6.1,77.5085,15.558,100.085
6.29,79.4088,15.558,100.087
6.48,81.3092,15.558,100.088
6.66,83.2095,15.558,100.089
6.85,85.1098,15.558,100.09
7.05,87.0102,15.558,100.091
7.24,88.9105,15.559,100.092
7.43,90.8109,15.559,100.093
7.62,92.7112,15.559,100.094
7.81,94.6115,15.559,100.095
8,96.5119,15.559,100.095
8.19,98.4122,15.559,100.095
8.38,100.313,15.559,100.096
8.57,102.213,15.559,100.097
8.76,104.113,15.559,100.097
8.95,106.014,15.559,100.098
9.14,107.914,15.559,100.098
9.33,109.814,15.56,100.098
9.52,111.715,15.56,100.098
9.71,113.615,15.56,100.098
9.9,115.515,15.56,100.098
10.09,117.416,15.56,100.098
10.28,119.316,15.56,100.098
10.47,121.216,15.56,100.098
10.66,123.117,15.559,100.098
10.85,125.017,15.559,100.097
11.04,126.917,15.559,100.097
11.23,128.818,15.559,100.097
11.42,130.718,15.559,100.096
11.61,132.618,15.559,100.096
11.8,134.519,15.559,100.095
11.99,136.419,15.559,100.095
12.18,138.319,15.559,100.094
12.37,140.22,15.559,100.093
12.56,142.12,15.559,100.092
12.75,144.02,15.559,100.092
12.94,145.921,15.558,100.091
13.13,147.821,15.558,100.09
13.32,149.721,15.558,100.089
13.51,151.622,15.558,100.088
13.7,153.522,15.558,100.086
13.89,155.422,15.557,100.083
14.08,157.323,15.556,100.078
14.27,159.223,15.556,100.074
14.46,161.123,15.555,100.07
14.65,163.024,15.555,100.067
14.84,164.924,15.554,100.064
15.03,166.824,15.554,100.062
15.22,168.725,15.554,100.06
15.41,170.625,15.553,100.058
15.6,172.525,15.553,100.056
15.79,174.426,15.553,100.054
15.98,176.326,15.552,100.052
16.17,178.226,15.552,100.051
16.36,180.127,15.552,100.049
16.55,182.027,15.552,100.048
16.74,183.927,15.551,100.046
16.93,185.828,15.551,100.044
17.12,187.728,15.551,100.042
17.31,189.629,15.551,100.04
17.5,191.529,15.55,100.038
17.69,193.429,15.55,100.036
17.88,195.33,15.55,100.034
18.08,197.23,15.549,100.032
18.27,199.13,15.549,100.03
18.46,201.031,15.549,100.027
18.65,202.931,15.548,100.025
18.84,204.831,15.548,100.023
19.03,206.732,15.547,100.02
19.22,208.632,15.547,100.017
19.41,210.532,15.547,100.015
19.61,212.433,15.546,100.012
19.8,214.333,15.546,100.01
19.99,216.233,15.545,100.007
20.18,218.134,15.545,100.003
20.37,220.034,15.544,100
20.56,221.934,15.544,99.997
20.74,223.835,15.543,99.994
20.94,225.735,15.543,99.991
21.13,227.635,15.542,99.987
21.32,229.536,15.542,99.984
21.51,231.436,15.541,99.98
21.69,233.336,15.541,99.976
21.88,235.237,15.54,99.973
22.07,237.137,15.539,99.969
22.26,239.037,15.539,99.965
22.45,240.938,15.538,99.961
22.64,242.838,15.538,99.957
22.83,244.738,15.537,99.953
23.02,246.639,15.536,99.949
23.21,248.539,15.536,99.945
23.41,250.439,15.535,99.941
23.6,252.34,15.535,99.937
23.8,254.24,15.534,99.933
23.98,256.14,15.533,99.929
24.16,258.041,15.533,99.925
24.35,259.941,15.532,99.92
24.54,261.841,15.531,99.916
24.73,263.742,15.531,99.911
24.92,265.642,15.53,99.907
25.12,267.542,15.529,99.903
25.31,269.443,15.528,99.898
25.5,271.343,15.528,99.893
25.69,273.243,15.527,99.889
25.88,275.144,15.526,99.884
26.07,277.044,15.526,99.88
26.26,278.944,15.525,99.875
26.44,280.845,15.524,99.871
26.63,282.745,15.523,99.866
26.82,284.645,15.523,99.861
27.01,286.546,15.522,99.856
27.2,288.446,15.521,99.851
27.39,290.346,15.52,99.846
27.58,292.247,15.519,99.84
27.77,294.147,15.519,99.835
27.96,296.048,15.518,99.83
28.15,297.948,15.517,99.825
28.34,299.848,15.516,99.82
28.53,301.749,15.515,99.814
28.72,303.649,15.515,99.809
28.91,305.549,15.514,99.803
29.1,307.45,15.513,99.798
29.29,309.35,15.512,99.792
29.49,311.25,15.511,99.786
29.68,313.151,15.51,99.781
29.87,315.051,15.509,99.775
30.06,316.951,15.508,99.769
30.25,318.852,15.507,99.763
30.44,320.752,15.507,99.757
30.63,322.652,15.506,99.75
30.82,324.553,15.505,99.744
31.01,326.453,15.504,99.738
31.19,328.353,15.503,99.732
31.38,330.254,15.502,99.725
31.57,332.154,15.501,99.719
31.76,334.054,15.499,99.712
31.95,335.955,15.498,99.704
32.14,337.855,15.497,99.697
32.33,339.755,15.496,99.69
32.53,341.656,15.495,99.683
32.72,343.556,15.494,99.675
32.89,345.456,15.493,99.668
33.08,347.357,15.492,99.661
33.28,349.257,15.49,99.652
33.47,351.157,15.489,99.644
33.66,353.058,15.488,99.636
33.86,354.958,15.486,99.628
34.05,356.858,15.485,99.619
34.24,358.759,15.484,99.61
34.43,360.659,15.482,99.601
34.62,362.559,15.481,99.592
34.81,364.46,15.479,99.583
35,366.36,15.478,99.574
35.19,368.26,15.477,99.564
35.38,370.161,15.475,99.553
35.57,372.061,15.473,99.543
35.76,373.961,15.472,99.533
35.95,375.862,15.47,99.522
36.14,377.762,15.468,99.51
36.33,379.662,15.466,99.499
36.52,381.563,15.464,99.487
36.71,383.463,15.463,99.474
36.9,385.363,15.461,99.461
37.09,387.264,15.458,99.448
37.28,389.164,15.456,99.434
37.47,391.064,15.454,99.419
37.65,392.965,15.452,99.405
37.84,394.865,15.45,99.39
38.03,396.765,15.447,99.375
38.22,398.666,15.445,99.358
38.41,400.566,15.442,99.342
38.6,402.467,15.439,99.325
38.79,404.367,15.437,99.307
38.98,406.267,15.434,99.289
39.17,408.168,15.431,99.271
39.36,410.068,15.428,99.25
39.56,411.968,15.424,99.229
39.75,413.869,15.421,99.206
39.94,415.769,15.417,99.182
40.13,417.669,15.413,99.156
40.32,419.57,15.409,99.128
40.51,421.47,15.404,99.098
40.7,423.37,15.399,99.065
40.89,425.271,15.393,99.029
41.08,427.171,15.387,98.99
41.27,429.071,15.381,98.948
41.46,430.972,15.374,98.902
41.65,432.872,15.366,98.851
41.84,434.772,15.357,98.795
42.03,436.673,15.347,98.733
42.22,438.573,15.336,98.663
42.41,440.473,15.324,98.583
42.6,442.374,15.31,98.493
42.79,444.274,15.294,98.388
42.98,446.174,15.275,98.267
43.17,448.075,15.253,98.124
43.36,449.975,15.226,97.951
43.55,451.875,15.195,97.753
43.74,453.776,15.161,97.536
43.93,455.676,15.125,97.302
44.12,457.576,15.087,97.06
44.31,459.477,15.048,96.806
44.5,461.377,15.007,96.541
44.69,463.277,14.963,96.26
44.88,465.178,14.918,95.969
45.07,467.078,14.869,95.657
45.26,468.978,14.818,95.33
45.45,470.879,14.765,94.985
45.64,472.779,14.708,94.623
45.83,474.679,14.641,94.189
46.01,476.58,14.558,93.658
46.21,478.48,14.461,93.032
46.39,480.38,14.345,92.285
46.58,482.281,14.213,91.434
46.77,484.181,14.052,90.399
46.96,486.081,13.87,89.226
47.15,487.982,13.656,87.855
47.34,489.882,13.401,86.21
47.53,491.782,13.112,84.352
47.72,493.683,12.78,82.219
47.91,495.583,12.389,79.703
48.1,497.483,11.944,76.838
48.29,499.384,11.431,73.537
48.48,501.284,10.841,69.74
48.67,503.184,10.173,65.448
48.86,505.085,9.431,60.673
49.05,506.985,8.601,55.329
49.24,508.886,7.701,49.54
49.43,510.786,6.737,43.338
49.63,512.686,5.712,36.744
49.81,514.587,4.663,29.996
50.01,516.487,3.636,23.392
50.19,518.387,2.666,17.149
50.38,520.288,1.788,11.505
50.57,522.188,1.074,6.911
50.76,524.088,0.5630000,3.62
50.95,525.989,0.2800000,1.799
51.14,527.889,0.1750000,1.123
51.33,529.789,0.1510000,0.9740000
51.53,531.69,0.1420000,0.9160000
51.72,533.59,0.1380000,0.8860000
51.91,535.49,0.1360000,0.8740000
52.1,537.391,0.1350000,0.8690000
52.29,539.291,0.1350000,0.8670000
52.48,541.191,0.1350000,0.8660000
52.67,543.092,0.1350000,0.8650000
52.86,544.992,0.1340000,0.8650000
53.04,546.892,0.1340000,0.8640000
53.23,548.793,0.1340000,0.8640000
53.42,550.693,0.1340000,0.8630000
53.61,552.593,0.1340000,0.8630000
53.81,554.494,0.1340000,0.8630000
53.99,556.394,0.1340000,0.8620000
54.18,558.294,0.1340000,0.8620000
54.37,560.195,0.1340000,0.8610000
54.56,562.095,0.1340000,0.8610000
54.75,563.995,0.1340000,0.8610000
54.93,565.896,0.1340000,0.8610000
55.12,567.796,0.1340000,0.8600000
55.31,569.696,0.1340000,0.8590000
55.51,571.597,0.1330000,0.8580000
55.69,573.497,0.1330000,0.8580000
55.89,575.397,0.1330000,0.8570000
56.08,577.298,0.1330000,0.8570000
56.27,579.198,0.1330000,0.8560000
56.46,581.098,0.1330000,0.8550000
56.65,582.999,0.1330000,0.8540000
56.84,584.899,0.1330000,0.8530000
57.03,586.799,0.1330000,0.8530000
57.22,588.7,0.1320000,0.8520000
57.35,590,0.1320000,0.8510000