File: R/rHDPE_App/app/www/Output/TGA/Condensed_Data/Resin23_0__1.csv
0.7500000,30,15.09,100.019,0.0100197
1.03,32.2004,15.091,100.027,0.0050649
1.28,34.4008,15.092,100.033,-0.0011392
1.53,36.6012,15.093,100.036,0.0011562
1.76,38.8016,15.093,100.04,0.0033470
2,41.002,15.094,100.043,0.0005351
2.23,43.2024,15.094,100.045,0.0021228
2.46,45.4028,15.095,100.049,0.0006225
2.69,47.6031,15.095,100.051,0.0009992
2.92,49.8035,15.096,100.055,0.0018443
3.15,52.0039,15.096,100.058,0.0006116
3.37,54.2043,15.096,100.06,0.0008892
3.6,56.4047,15.097,100.063,0.0019586
3.82,58.6051,15.097,100.066,0.0004648
4.04,60.8055,15.097,100.068,0.0011587
4.27,63.0059,15.098,100.07,0.0025424
4.49,65.2063,15.098,100.073,-0.0001846
4.71,67.4067,15.099,100.075,0.0014741
4.93,69.6071,15.099,100.077,0.0018856
5.15,71.8075,15.099,100.079,-0.0000460
5.37,74.0079,15.099,100.081,0.0005044
5.59,76.2083,15.1,100.083,0.0019262
5.81,78.4086,15.1,100.085,0.0001375
6.03,80.609,15.1,100.086,0.0003667
6.25,82.8094,15.101,100.088,0.0021538
6.47,85.0098,15.101,100.089,0.0009158
6.7,87.2102,15.101,100.09,0.0000000
6.91,89.4106,15.101,100.091,0.0014195
7.14,91.611,15.101,100.093,0.0001373
7.35,93.8114,15.101,100.094,-0.0005947
7.58,96.0118,15.102,100.095,0.0013719
7.8,98.2122,15.102,100.095,0.0005491
8.01,100.413,15.102,100.095,-0.0010530
8.24,102.613,15.102,100.096,0.0011006
8.45,104.813,15.102,100.097,0.0006415
8.68,107.014,15.102,100.096,-0.0020146
8.9,109.214,15.102,100.096,0.0006868
9.12,111.415,15.102,100.097,0.0003663
9.33,113.615,15.102,100.096,-0.0019239
9.55,115.815,15.102,100.096,0.0003664
9.78,118.016,15.102,100.096,0.0009160
10,120.216,15.102,100.096,-0.0010540
10.22,122.417,15.102,100.094,0.0003667
10.44,124.617,15.102,100.094,0.0000917
10.66,126.817,15.101,100.094,-0.0024767
10.88,129.018,15.101,100.092,0.0005508
11.1,131.218,15.101,100.092,0.0010098
11.32,133.418,15.101,100.092,-0.0013766
11.54,135.619,15.101,100.092,0.0003210
11.76,137.819,15.101,100.091,0.0009147
11.98,140.02,15.101,100.09,-0.0014596
12.2,142.22,15.1,100.087,-0.0030399
12.42,144.42,15.1,100.082,-0.0011771
12.63,146.621,15.099,100.078,-0.0023192
12.85,148.821,15.098,100.072,-0.0026085
13.07,151.022,15.098,100.069,-0.0008740
13.3,153.222,15.097,100.066,-0.0013820
13.52,155.422,15.097,100.062,-0.0020267
13.74,157.623,15.096,100.058,-0.0006897
13.96,159.823,15.096,100.055,-0.0022505
14.18,162.024,15.095,100.051,-0.0022967
14.4,164.224,15.094,100.048,-0.0004131
14.62,166.424,15.094,100.044,-0.0016499
14.84,168.625,15.093,100.04,-0.0032946
15.06,170.825,15.093,100.036,-0.0011888
15.28,173.026,15.092,100.031,-0.0032964
15.5,175.226,15.091,100.026,-0.0025225
15.72,177.426,15.09,100.021,-0.0011918
15.94,179.627,15.09,100.016,-0.0032542
16.16,181.827,15.089,100.01,-0.0024283
16.38,184.028,15.088,100.004,-0.0020173
16.6,186.228,15.087,99.998,-0.0029781
16.82,188.428,15.086,99.991,-0.0035299
17.04,190.629,15.085,99.984,-0.0027039
17.26,192.829,15.084,99.978,-0.0030684
17.48,195.029,15.083,99.97,-0.0044913
17.7,197.23,15.082,99.962,-0.0022910
17.92,199.43,15.081,99.956,-0.0034381
18.14,201.631,15.079,99.947,-0.0042186
18.36,203.831,15.078,99.939,-0.0027027
18.58,206.031,15.077,99.932,-0.0037122
18.81,208.232,15.076,99.923,-0.0052656
19.03,210.432,15.074,99.914,-0.0033443
19.24,212.633,15.073,99.906,-0.0038021
19.47,214.833,15.072,99.897,-0.0041247
19.68,217.033,15.07,99.888,-0.0028396
19.91,219.234,15.069,99.88,-0.0037570
20.13,221.434,15.068,99.87,-0.0063320
20.35,223.635,15.066,99.86,-0.0036229
20.57,225.835,15.065,99.851,-0.0044004
20.79,228.035,15.063,99.842,-0.0053162
21.01,230.236,15.062,99.832,-0.0031608
21.23,232.436,15.061,99.823,-0.0038028
21.45,234.637,15.059,99.813,-0.0056350
21.67,236.837,15.058,99.804,-0.0042136
21.89,239.037,15.056,99.794,-0.0027930
22.11,241.238,15.055,99.785,-0.0060009
22.33,243.438,15.053,99.775,-0.0039890
22.55,245.639,15.052,99.765,-0.0032539
22.77,247.839,15.05,99.756,-0.0052231
22.99,250.039,15.049,99.746,-0.0044443
23.21,252.24,15.048,99.737,-0.0036640
23.43,254.44,15.046,99.727,-0.0049442
23.65,256.64,15.045,99.717,-0.0048966
23.87,258.841,15.043,99.707,-0.0033425
24.09,261.041,15.042,99.697,-0.0051787
24.31,263.242,15.04,99.687,-0.0041705
24.53,265.442,15.039,99.678,-0.0031610
24.75,267.642,15.037,99.668,-0.0059086
24.97,269.843,15.036,99.657,-0.0042582
25.19,272.043,15.034,99.648,-0.0032985
25.41,274.244,15.033,99.638,-0.0048103
25.63,276.444,15.031,99.628,-0.0048570
25.85,278.644,15.03,99.618,-0.0036644
26.07,280.845,15.028,99.608,-0.0051740
26.29,283.045,15.027,99.597,-0.0060440
26.51,285.246,15.025,99.587,-0.0036192
26.73,287.446,15.024,99.577,-0.0056298
26.95,289.646,15.022,99.567,-0.0060900
27.17,291.847,15.02,99.556,-0.0041683
27.39,294.047,15.019,99.546,-0.0049496
27.61,296.248,15.017,99.535,-0.0051806
27.83,298.448,15.016,99.524,-0.0033870
28.05,300.648,15.014,99.514,-0.0052169
28.27,302.849,15.012,99.503,-0.0059492
28.49,305.049,15.011,99.491,-0.0046211
28.71,307.25,15.009,99.48,-0.0049908
28.93,309.45,15.007,99.468,-0.0070054
29.15,311.65,15.005,99.457,-0.0048993
29.37,313.851,15.004,99.445,-0.0060976
29.59,316.051,15.002,99.432,-0.0062328
29.81,318.251,15,99.42,-0.0043498
30.03,320.452,14.998,99.408,-0.0052637
30.25,322.652,14.996,99.395,-0.0067766
30.47,324.853,14.994,99.383,-0.0051769
30.69,327.053,14.992,99.37,-0.0063645
30.91,329.253,14.99,99.356,-0.0075050
31.13,331.454,14.988,99.343,-0.0049424
31.35,333.654,14.986,99.329,-0.0074176
31.57,335.855,14.984,99.315,-0.0071861
31.79,338.055,14.982,99.301,-0.0050366
32.02,340.255,14.98,99.287,-0.0078324
32.23,342.456,14.978,99.273,-0.0067271
32.46,344.656,14.975,99.258,-0.0053114
32.68,346.857,14.973,99.243,-0.0075979
32.89,349.057,14.971,99.228,-0.0075550
33.12,351.257,14.968,99.212,-0.0059982
33.33,353.458,14.966,99.196,-0.0090659
33.56,355.658,14.963,99.179,-0.0086538
33.78,357.859,14.961,99.163,-0.0065476
33.99,360.059,14.958,99.146,-0.0090201
34.21,362.259,14.956,99.128,-0.0085165
34.44,364.46,14.953,99.11,-0.0071403
34.66,366.66,14.95,99.091,-0.0102471
34.88,368.861,14.947,99.072,-0.0091541
35.09,371.061,14.944,99.052,-0.0080586
35.31,373.261,14.941,99.032,-0.0099324
35.54,375.462,14.938,99.01,-0.0100220
35.76,377.662,14.935,98.989,-0.0092949
35.98,379.862,14.931,98.966,-0.0118633
36.19,382.063,14.928,98.942,-0.0108059
36.42,384.263,14.924,98.917,-0.0111203
36.64,386.464,14.92,98.891,-0.0140948
36.86,388.664,14.916,98.863,-0.0133168
37.08,390.864,14.911,98.833,-0.0134615
37.29,393.065,14.907,98.802,-0.0148352
37.51,395.265,14.901,98.767,-0.0163342
37.74,397.466,14.896,98.731,-0.0168406
37.96,399.666,14.89,98.69,-0.0212337
38.18,401.866,14.883,98.645,-0.0206960
38.39,404.067,14.876,98.596,-0.0223901
38.61,406.267,14.867,98.542,-0.0276557
38.84,408.468,14.859,98.484,-0.0264652
39.06,410.668,14.849,98.423,-0.0291049
39.28,412.868,14.839,98.356,-0.0320841
39.49,415.069,14.828,98.281,-0.0360801
39.71,417.269,14.815,98.195,-0.0419561
39.94,419.47,14.8,98.097,-0.0474406
40.16,421.67,14.783,97.984,-0.0559982
40.38,423.87,14.763,97.848,-0.0675366
40.59,426.071,14.737,97.68,-0.0882755
40.81,428.271,14.704,97.458,-0.1235350
41.04,430.472,14.658,97.156,-0.1496890
41.26,432.672,14.607,96.814,-0.1626370
41.48,434.872,14.549,96.43,-0.1949320
41.69,437.073,14.474,95.935,-0.2545710
41.91,439.273,14.379,95.304,-0.3362620
42.14,441.473,14.244,94.412,-0.4413520
42.36,443.674,14.08,93.322,-0.5463830
42.58,445.874,13.876,91.973,-0.7205450
42.79,448.075,13.626,90.315,-0.7691740
43.01,450.275,13.351,88.49,-0.7639060
43.24,452.475,13.035,86.396,-1.09241
43.46,454.676,12.646,83.817,-1.28718
43.68,456.876,12.185,80.76,-1.48223
43.9,459.077,11.653,77.24,-1.7652
44.12,461.277,11.032,73.124,-2.02372
44.34,463.477,10.318,68.392,-2.29217
44.56,465.678,9.509,63.023,-2.57785
44.78,467.878,8.616,57.107,-2.78505
45,470.079,7.643,50.657,-3.09729
45.21,472.279,6.616,43.85,-3.15697
45.44,474.479,5.545,36.75,-3.23897
45.66,476.68,4.478,29.679,-3.17206
45.88,478.88,3.46,22.931,-2.92353
46.09,481.081,2.543,16.853,-2.55082
46.31,483.281,1.77,11.732,-2.00471
46.53,485.481,1.188,7.873,-1.46509
46.75,487.682,0.7870000,5.218,-0.9557600
46.97,489.882,0.5440000,3.605,-0.5554930
47.19,492.083,0.4190000,2.775,-0.2421440
47.41,494.283,0.3690000,2.444,-0.0740242
47.63,496.483,0.3530000,2.338,-0.0402988
47.86,498.684,0.3430000,2.273,-0.0199155
48.08,500.884,0.3380000,2.243,-0.0084432
48.29,503.084,0.3370000,2.231,-0.0034759
48.51,505.285,0.3360000,2.226,-0.0014097
48.74,507.485,0.3360000,2.224,-0.0001200
48.95,509.686,0.3350000,2.223,-0.0001945
49.17,511.886,0.3350000,2.222,0.0002158
49.39,514.086,0.3350000,2.221,-0.0002587
49.61,516.287,0.3350000,2.221,-0.0003717
49.83,518.487,0.3350000,2.22,-0.0003314
50.05,520.688,0.3350000,2.22,-0.0002944
50.27,522.888,0.3350000,2.219,-0.0003402
50.49,525.088,0.3350000,2.218,-0.0004315
50.71,527.289,0.3350000,2.217,-0.0004670
50.93,529.489,0.3340000,2.216,-0.0007455
51.15,531.69,0.3340000,2.214,-0.0008307
51.37,533.89,0.3340000,2.212,-0.0007616
51.59,536.09,0.3330000,2.21,-0.0010177
51.81,538.291,0.3330000,2.208,-0.0006725
52.03,540.491,0.3330000,2.206,-0.0009748
52.25,542.692,0.3330000,2.204,-0.0009558
52.47,544.892,0.3320000,2.203,-0.0007150
52.69,547.092,0.3320000,2.201,-0.0009601
52.91,549.293,0.3320000,2.199,-0.0005646
53.13,551.493,0.3320000,2.198,-0.0007118
53.35,553.694,0.3310000,2.196,-0.0009369
53.57,555.894,0.3310000,2.194,-0.0002057
53.79,558.094,0.3310000,2.193,-0.0008355
54.01,560.295,0.3310000,2.191,-0.0010326
54.23,562.495,0.3300000,2.189,-0.0005488
54.45,564.695,0.3300000,2.188,-0.0008951
54.67,566.896,0.3300000,2.186,-0.0012348
54.89,569.096,0.3290000,2.183,-0.0011275
55.11,571.297,0.3290000,2.181,-0.0009119
55.33,573.497,0.3290000,2.179,-0.0009666
55.55,575.697,0.3280000,2.176,-0.0012726
55.77,577.898,0.3280000,2.173,-0.0016113
55.99,580.098,0.3270000,2.169,-0.0021311
56.21,582.299,0.3270000,2.164,-0.0024439
56.43,584.499,0.3260000,2.159,-0.0025828
56.65,586.699,0.3250000,2.153,-0.0030241
56.87,588.9,0.3240000,2.147,-0.0031093
56.98,590,0.3230000,2.143,-0.0035605