File: R/rHDPE_App/app/www/Output/TGA/Condensed_Data/Resin1_0__1.csv
1.05,30,13.624,100.031,0.0046329
1.32,32.3004,13.624,100.035,0.0004105
1.57,34.6008,13.625,100.038,0.0010980
1.82,36.9012,13.625,100.041,0.0009322
2.07,39.2016,13.626,100.044,0.0007767
2.31,41.5021,13.626,100.046,0.0009173
2.55,43.8025,13.626,100.049,0.0009100
2.79,46.1029,13.627,100.052,0.0017588
3.03,48.4033,13.627,100.055,0.0009441
3.26,50.7037,13.627,100.058,0.0013151
3.5,53.0041,13.628,100.06,0.0015443
3.74,55.3045,13.628,100.063,0.0010707
3.97,57.6049,13.628,100.066,0.0009736
4.2,59.9053,13.629,100.068,0.0009260
4.43,62.2058,13.629,100.07,0.0011532
4.66,64.5062,13.629,100.072,0.0011993
4.9,66.8066,13.63,100.075,0.0005512
5.13,69.107,13.63,100.076,0.0009190
5.36,71.4074,13.63,100.078,0.0005051
5.59,73.7078,13.63,100.08,0.0007782
5.82,76.0082,13.631,100.082,0.0009598
6.05,78.3086,13.631,100.083,0.0006404
6.28,80.609,13.631,100.084,0.0007327
6.51,82.9094,13.631,100.086,0.0008234
6.74,85.2099,13.631,100.087,0.0001830
6.97,87.5103,13.632,100.088,0.0005937
7.2,89.8107,13.632,100.089,0.0000456
7.43,92.1111,13.632,100.09,0.0006412
7.66,94.4115,13.632,100.091,0.0004117
7.89,96.7119,13.632,100.092,0.0005486
8.12,99.0123,13.632,100.092,0.0004577
8.35,101.313,13.632,100.093,0.0002286
8.58,103.613,13.632,100.093,0.0004127
8.81,105.914,13.632,100.093,0.0002289
9.04,108.214,13.632,100.094,-0.0000457
9.27,110.514,13.632,100.094,-0.0000458
9.5,112.815,13.632,100.094,0.0000000
9.73,115.115,13.632,100.094,0.0001831
9.96,117.416,13.632,100.094,-0.0002745
10.19,119.716,13.632,100.094,0.0003206
10.42,122.016,13.632,100.094,0.0000000
10.65,124.317,13.632,100.095,0.0003664
10.88,126.617,13.632,100.095,0.0002293
11.11,128.918,13.633,100.095,-0.0001374
11.34,131.218,13.633,100.095,0.0000459
11.57,133.518,13.633,100.095,-0.0000913
11.8,135.819,13.633,100.095,-0.0000915
12.03,138.119,13.632,100.095,-0.0004570
12.26,140.42,13.632,100.093,-0.0015532
12.49,142.72,13.632,100.089,-0.0022734
12.72,145.021,13.631,100.084,-0.0020477
12.95,147.321,13.63,100.08,-0.0014208
13.18,149.621,13.63,100.076,-0.0014207
13.41,151.922,13.63,100.074,-0.0014257
13.64,154.222,13.629,100.071,-0.0010108
13.87,156.523,13.629,100.069,-0.0011499
14.1,158.823,13.629,100.066,-0.0013359
14.33,161.123,13.628,100.063,-0.0012391
14.56,163.424,13.628,100.06,-0.0012382
14.79,165.724,13.627,100.057,-0.0008268
15.02,168.025,13.627,100.054,-0.0016019
15.25,170.325,13.627,100.051,-0.0014696
15.48,172.625,13.626,100.048,-0.0016065
15.71,174.926,13.626,100.045,-0.0015112
15.94,177.226,13.625,100.041,-0.0016040
16.17,179.527,13.625,100.038,-0.0016014
16.4,181.827,13.624,100.034,-0.0013756
16.63,184.128,13.624,100.03,-0.0018318
16.86,186.428,13.623,100.027,-0.0017862
17.09,188.728,13.623,100.023,-0.0021475
17.32,191.029,13.622,100.019,-0.0018369
17.55,193.329,13.622,100.015,-0.0017353
17.78,195.63,13.621,100.011,-0.0020197
18.01,197.93,13.62,100.006,-0.0015601
18.24,200.23,13.62,100.002,-0.0016875
18.48,202.531,13.619,99.997,-0.0018829
18.71,204.831,13.619,99.993,-0.0020183
18.93,207.132,13.618,99.989,-0.0021560
19.17,209.432,13.617,99.984,-0.0024239
19.4,211.732,13.617,99.98,-0.0020150
19.63,214.033,13.616,99.975,-0.0023805
19.86,216.333,13.615,99.97,-0.0020277
20.09,218.634,13.615,99.965,-0.0019712
20.32,220.934,13.614,99.96,-0.0019674
20.55,223.235,13.613,99.955,-0.0019240
20.78,225.535,13.613,99.95,-0.0024705
21.01,227.835,13.612,99.945,-0.0023444
21.24,230.136,13.611,99.94,-0.0024567
21.47,232.436,13.611,99.935,-0.0019224
21.7,234.737,13.61,99.93,-0.0018859
21.93,237.037,13.609,99.924,-0.0022389
22.16,239.337,13.609,99.919,-0.0023825
22.39,241.638,13.608,99.914,-0.0024208
22.62,243.938,13.607,99.908,-0.0025306
22.85,246.239,13.606,99.902,-0.0024256
23.08,248.539,13.605,99.896,-0.0031550
23.31,250.839,13.605,99.891,-0.0025634
23.54,253.14,13.604,99.885,-0.0028899
23.77,255.44,13.603,99.879,-0.0025700
24,257.741,13.602,99.872,-0.0029294
24.23,260.041,13.601,99.866,-0.0026051
24.46,262.341,13.6,99.859,-0.0029965
24.69,264.642,13.599,99.853,-0.0025105
24.92,266.942,13.599,99.846,-0.0029347
25.15,269.243,13.598,99.839,-0.0030275
25.38,271.543,13.597,99.832,-0.0030203
25.61,273.844,13.596,99.825,-0.0028503
25.84,276.144,13.595,99.817,-0.0034779
26.07,278.444,13.594,99.81,-0.0032051
26.3,280.745,13.593,99.802,-0.0032997
26.53,283.045,13.592,99.795,-0.0031136
26.76,285.346,13.591,99.787,-0.0029320
26.99,287.646,13.59,99.779,-0.0033407
27.22,289.946,13.588,99.772,-0.0033028
27.45,292.247,13.587,99.764,-0.0034259
27.68,294.547,13.586,99.756,-0.0037088
27.91,296.848,13.585,99.748,-0.0039005
28.14,299.148,13.584,99.74,-0.0034309
28.37,301.448,13.583,99.732,-0.0038052
28.6,303.749,13.582,99.723,-0.0036126
28.83,306.049,13.581,99.715,-0.0032967
29.06,308.35,13.58,99.707,-0.0038919
29.29,310.65,13.578,99.698,-0.0035728
29.52,312.951,13.577,99.69,-0.0037128
29.75,315.251,13.576,99.681,-0.0035695
29.98,317.551,13.575,99.673,-0.0034837
30.21,319.852,13.574,99.664,-0.0039748
30.44,322.152,13.573,99.655,-0.0036106
30.67,324.453,13.571,99.646,-0.0042818
30.9,326.753,13.57,99.637,-0.0040433
31.13,329.053,13.569,99.628,-0.0038905
31.36,331.354,13.568,99.619,-0.0041171
31.59,333.654,13.566,99.609,-0.0039813
31.82,335.955,13.565,99.599,-0.0044897
32.06,338.255,13.564,99.589,-0.0044021
32.28,340.555,13.562,99.579,-0.0043474
32.51,342.856,13.561,99.568,-0.0050759
32.74,345.156,13.559,99.557,-0.0047663
32.98,347.457,13.558,99.545,-0.0052656
33.21,349.757,13.556,99.533,-0.0050459
33.43,352.058,13.554,99.521,-0.0056144
33.67,354.358,13.553,99.508,-0.0059491
33.89,356.658,13.551,99.494,-0.0060876
34.13,358.959,13.549,99.48,-0.0066355
34.36,361.259,13.547,99.465,-0.0066850
34.59,363.56,13.544,99.448,-0.0071807
34.81,365.86,13.542,99.431,-0.0075688
35.04,368.16,13.54,99.413,-0.0080025
35.28,370.461,13.537,99.393,-0.0090900
35.51,372.761,13.534,99.371,-0.0103785
35.74,375.062,13.531,99.346,-0.0108976
35.96,377.362,13.527,99.32,-0.0124588
36.19,379.662,13.523,99.289,-0.0137287
36.43,381.963,13.518,99.255,-0.0156307
36.66,384.263,13.513,99.216,-0.0172761
36.89,386.564,13.507,99.173,-0.0201192
37.11,388.864,13.5,99.124,-0.0222578
37.34,391.164,13.493,99.07,-0.0251098
37.58,393.465,13.485,99.009,-0.0280073
37.81,395.765,13.475,98.941,-0.0309812
38.04,398.066,13.465,98.866,-0.0346625
38.26,400.366,13.454,98.782,-0.0388185
38.5,402.667,13.441,98.686,-0.0436813
38.73,404.967,13.426,98.579,-0.0489677
38.96,407.267,13.41,98.459,-0.0556063
39.19,409.568,13.391,98.325,-0.0614582
39.41,411.868,13.371,98.175,-0.0691295
39.64,414.169,13.348,98.005,-0.0788197
39.88,416.469,13.32,97.799,-0.1020770
40.11,418.769,13.284,97.534,-0.1297080
40.34,421.07,13.24,97.212,-0.1517820
40.56,423.37,13.189,96.84,-0.1721010
40.79,425.671,13.133,96.426,-0.1919820
41.03,427.971,13.07,95.962,-0.2205340
41.26,430.271,12.997,95.431,-0.2505950
41.49,432.572,12.912,94.805,-0.2941740
41.71,434.872,12.813,94.081,-0.3411880
41.94,437.173,12.698,93.233,-0.3945950
42.18,439.473,12.562,92.233,-0.4641030
42.41,441.774,12.398,91.03,-0.5961890
42.64,444.074,12.195,89.539,-0.7042920
42.86,446.374,11.95,87.745,-0.8252750
43.1,448.675,11.651,85.549,-1.06904
43.33,450.975,11.304,82.998,-1.17207
43.56,453.276,10.885,79.919,-1.34894
43.79,455.576,10.379,76.21,-1.75284
44.02,457.876,9.78,71.806,-2.0883
44.25,460.177,9.071,66.599,-2.45522
44.48,462.477,8.246,60.546,-2.8305
44.71,464.778,7.302,53.614,-3.22853
44.94,467.078,6.242,45.83,-3.52338
45.17,469.378,5.087,37.351,-3.87045
45.4,471.679,3.871,28.422,-3.7612
45.63,473.979,2.676,19.649,-3.64046
45.86,476.28,1.677,12.312,-2.95541
46.09,478.58,0.8510000,6.246,-2.07174
46.31,480.881,0.3430000,2.52,-1.18494
46.54,483.181,0.1070000,0.7830000,-0.4113720
46.77,485.481,0.0390000,0.2840000,-0.0820738
47,487.782,0.0250000,0.1810000,-0.0331183
47.24,490.082,0.0180000,0.1310000,-0.0120869
47.46,492.383,0.0160000,0.1140000,-0.0039276
47.7,494.683,0.0150000,0.1080000,-0.0012847
47.93,496.983,0.0140000,0.1060000,-0.0007902
48.16,499.284,0.0140000,0.1050000,-0.0000018
48.39,501.584,0.0140000,0.1050000,0.0000398
48.61,503.885,0.0140000,0.1040000,0.0000730
48.84,506.185,0.0140000,0.1040000,-0.0002112
49.07,508.485,0.0140000,0.1030000,0.0001158
49.3,510.786,0.0140000,0.1030000,-0.0001210
49.53,513.086,0.0140000,0.1030000,-0.0004554
49.76,515.387,0.0140000,0.1030000,0.0000182
49.99,517.687,0.0140000,0.1020000,-0.0005735
50.22,519.987,0.0140000,0.1020000,-0.0001904
50.45,522.288,0.0140000,0.1020000,-0.0003387
50.68,524.588,0.0140000,0.1010000,-0.0002890
50.91,526.889,0.0140000,0.1010000,-0.0001802
51.14,529.189,0.0140000,0.1010000,-0.0000959
51.37,531.49,0.0140000,0.1010000,-0.0000673
51.6,533.79,0.0140000,0.1000000,-0.0000583
51.83,536.09,0.0140000,0.1000000,-0.0003421
52.06,538.391,0.0140000,0.1000000,0.0001159
52.29,540.691,0.0140000,0.0990000,-0.0000482
52.52,542.992,0.0130000,0.0990000,-0.0004636
52.75,545.292,0.0130000,0.0980000,-0.0001185
52.98,547.592,0.0130000,0.0980000,-0.0002535
53.21,549.893,0.0130000,0.0980000,-0.0000813
53.44,552.193,0.0130000,0.0970000,0.0000554
53.67,554.494,0.0130000,0.0970000,-0.0002394
53.9,556.794,0.0130000,0.0970000,-0.0004439
54.13,559.094,0.0130000,0.0960000,0.0000117
54.36,561.395,0.0130000,0.0960000,-0.0001360
54.59,563.695,0.0130000,0.0960000,0.0001295
54.82,565.996,0.0130000,0.0960000,-0.0003315
55.05,568.296,0.0130000,0.0950000,-0.0002431
55.28,570.597,0.0130000,0.0940000,-0.0002019
55.51,572.897,0.0130000,0.0940000,-0.0002126
55.74,575.197,0.0130000,0.0930000,-0.0001231
55.97,577.498,0.0130000,0.0930000,-0.0002071
56.2,579.798,0.0130000,0.0920000,-0.0001129
56.43,582.099,0.0120000,0.0910000,-0.0003009
56.66,584.399,0.0120000,0.0910000,-0.0003773
56.89,586.699,0.0120000,0.0900000,-0.0002221
57.12,589,0.0120000,0.0890000,-0.0000258
57.22,590,0.0120000,0.0890000,-0.0004995