File: R/rHDPE_App/app/www/Output/TGA/Condensed_Data/Resin1_1_.csv
0.6700000,30,14.149,100.018,0.0084438
0.9800000,32.3004,14.151,100.028,0.0030423
1.24,34.6008,14.151,100.034,0.0018179
1.5,36.9012,14.152,100.038,0.0021637
1.75,39.2016,14.152,100.041,0.0010335
2,41.5021,14.153,100.044,0.0007776
2.24,43.8025,14.153,100.047,0.0014479
2.48,46.1029,14.154,100.05,0.0011014
2.72,48.4033,14.154,100.053,0.0013772
2.96,50.7037,14.154,100.056,0.0012753
3.19,53.0041,14.155,100.058,0.0012218
3.43,55.3045,14.155,100.06,0.0010297
3.66,57.6049,14.155,100.062,0.0013047
3.9,59.9053,14.156,100.064,0.0008352
4.13,62.2058,14.156,100.067,0.0007868
4.36,64.5062,14.156,100.069,0.0011090
4.6,66.8066,14.157,100.072,0.0012448
4.83,69.107,14.157,100.074,0.0011046
5.06,71.4074,14.157,100.076,0.0011951
5.29,73.7078,14.158,100.079,0.0009185
5.52,76.0082,14.158,100.082,0.0010548
5.75,78.3086,14.158,100.084,0.0002752
5.98,80.609,14.159,100.086,0.0006412
6.21,82.9094,14.159,100.088,0.0012810
6.44,85.2099,14.159,100.089,0.0007781
6.67,87.5103,14.159,100.091,0.0008700
6.9,89.8107,14.16,100.092,0.0008239
7.13,92.1111,14.16,100.093,0.0001372
7.36,94.4115,14.16,100.095,0.0007780
7.59,96.7119,14.16,100.096,0.0005492
7.82,99.0123,14.16,100.096,0.0003206
8.05,101.313,14.16,100.097,0.0001373
8.28,103.613,14.16,100.097,-0.0002748
8.51,105.914,14.16,100.098,0.0002288
8.74,108.214,14.16,100.098,0.0003664
8.97,110.514,14.16,100.098,0.0001375
9.2,112.815,14.16,100.098,-0.0000458
9.43,115.115,14.16,100.099,-0.0001832
9.66,117.416,14.161,100.099,0.0002292
9.89,119.716,14.161,100.099,0.0004122
10.12,122.016,14.161,100.099,-0.0002750
10.35,124.317,14.161,100.099,0.0001833
10.58,126.617,14.161,100.099,0.0005967
10.82,128.918,14.161,100.1,0.0004591
11.05,131.218,14.161,100.101,0.0003677
11.28,133.518,14.161,100.101,0.0002294
11.51,135.819,14.161,100.102,0.0000458
11.74,138.119,14.161,100.102,0.0000915
11.97,140.42,14.161,100.101,-0.0007293
12.2,142.72,14.16,100.098,-0.0017174
12.42,145.021,14.16,100.094,-0.0022917
12.65,147.321,14.159,100.089,-0.0017692
12.88,149.621,14.159,100.085,-0.0016526
13.11,151.922,14.158,100.082,-0.0010624
13.34,154.222,14.158,100.079,-0.0008318
13.57,156.523,14.157,100.077,-0.0013815
13.8,158.823,14.157,100.074,-0.0014716
14.03,161.123,14.157,100.072,-0.0009189
14.27,163.424,14.156,100.069,-0.0012393
14.5,165.724,14.156,100.067,-0.0011476
14.73,168.025,14.156,100.064,-0.0013758
14.96,170.325,14.155,100.061,-0.0011002
15.19,172.625,14.155,100.058,-0.0015575
15.42,174.926,14.154,100.055,-0.0013741
15.65,177.226,14.154,100.052,-0.0015575
15.88,179.527,14.153,100.049,-0.0014197
16.11,181.827,14.153,100.045,-0.0015575
16.34,184.128,14.152,100.042,-0.0016957
16.57,186.428,14.152,100.038,-0.0015115
16.8,188.728,14.151,100.035,-0.0017394
17.03,191.029,14.151,100.031,-0.0018327
17.26,193.329,14.15,100.027,-0.0016033
17.49,195.63,14.15,100.023,-0.0017403
17.72,197.93,14.149,100.019,-0.0017426
17.95,200.23,14.149,100.014,-0.0017852
18.18,202.531,14.148,100.01,-0.0016508
18.41,204.831,14.147,100.006,-0.0021530
18.64,207.132,14.147,100.001,-0.0017862
18.87,209.432,14.146,99.997,-0.0023352
19.1,211.732,14.145,99.992,-0.0023356
19.33,214.033,14.145,99.988,-0.0016034
19.56,216.333,14.144,99.983,-0.0020152
19.79,218.634,14.144,99.979,-0.0022911
20.02,220.934,14.143,99.974,-0.0022471
20.25,223.235,14.142,99.969,-0.0021091
20.48,225.535,14.141,99.964,-0.0021536
20.71,227.835,14.141,99.959,-0.0019698
20.94,230.136,14.14,99.954,-0.0021988
21.18,232.436,14.139,99.949,-0.0023836
21.41,234.737,14.139,99.944,-0.0022451
21.63,237.037,14.138,99.939,-0.0021526
21.87,239.337,14.137,99.934,-0.0026567
22.09,241.638,14.136,99.929,-0.0025183
22.33,243.938,14.136,99.923,-0.0025183
22.56,246.239,14.135,99.918,-0.0021530
22.78,248.539,14.134,99.912,-0.0023825
23.02,250.839,14.133,99.906,-0.0027039
23.24,253.14,14.132,99.9,-0.0026569
23.48,255.44,14.132,99.894,-0.0026123
23.71,257.741,14.131,99.888,-0.0028873
23.94,260.041,14.13,99.882,-0.0027025
24.17,262.341,14.129,99.875,-0.0027946
24.4,264.642,14.128,99.869,-0.0026123
24.63,266.942,14.127,99.862,-0.0028404
24.86,269.243,14.126,99.855,-0.0028404
25.09,271.543,14.125,99.849,-0.0026571
25.32,273.844,14.124,99.842,-0.0028404
25.55,276.144,14.123,99.835,-0.0032526
25.78,278.444,14.122,99.827,-0.0030687
26.01,280.745,14.121,99.82,-0.0032069
26.24,283.045,14.12,99.813,-0.0037546
26.47,285.346,14.119,99.805,-0.0034352
26.7,287.646,14.118,99.797,-0.0032503
26.93,289.946,14.117,99.79,-0.0034341
27.16,292.247,14.116,99.782,-0.0028405
27.39,294.547,14.115,99.775,-0.0035734
27.62,296.848,14.114,99.767,-0.0036630
27.85,299.148,14.112,99.759,-0.0034358
28.08,301.448,14.111,99.751,-0.0033444
28.31,303.749,14.11,99.743,-0.0038497
28.54,306.049,14.109,99.735,-0.0034385
28.77,308.35,14.108,99.726,-0.0033455
29,310.65,14.107,99.718,-0.0034766
29.23,312.951,14.105,99.71,-0.0032509
29.46,315.251,14.104,99.701,-0.0034359
29.69,317.551,14.103,99.693,-0.0036609
29.92,319.852,14.102,99.684,-0.0038955
30.15,322.152,14.101,99.676,-0.0038440
30.38,324.453,14.099,99.667,-0.0034748
30.61,326.753,14.098,99.658,-0.0043025
30.84,329.053,14.097,99.649,-0.0041231
31.07,331.354,14.096,99.639,-0.0040751
31.3,333.654,14.094,99.63,-0.0042544
31.53,335.955,14.093,99.621,-0.0042101
31.76,338.255,14.092,99.612,-0.0042147
31.99,340.555,14.09,99.602,-0.0048535
32.22,342.856,14.089,99.592,-0.0042559
32.45,345.156,14.087,99.582,-0.0042125
32.68,347.457,14.086,99.571,-0.0047186
32.91,349.757,14.084,99.561,-0.0046687
33.14,352.058,14.083,99.55,-0.0048096
33.37,354.358,14.081,99.539,-0.0048535
33.6,356.658,14.08,99.528,-0.0047143
33.83,358.959,14.078,99.517,-0.0049871
34.06,361.259,14.077,99.505,-0.0049423
34.29,363.56,14.075,99.493,-0.0054915
34.52,365.86,14.073,99.481,-0.0053084
34.75,368.16,14.071,99.468,-0.0055403
34.98,370.461,14.069,99.455,-0.0059556
35.21,372.761,14.067,99.44,-0.0062729
35.44,375.062,14.065,99.425,-0.0069572
35.67,377.362,14.063,99.407,-0.0078254
35.9,379.662,14.06,99.388,-0.0089826
36.13,381.963,14.057,99.367,-0.0098023
36.36,384.263,14.054,99.343,-0.0108696
36.59,386.564,14.05,99.316,-0.0122719
36.82,388.864,14.046,99.287,-0.0135358
37.05,391.164,14.041,99.253,-0.0151557
37.28,393.465,14.036,99.215,-0.0166788
37.51,395.765,14.03,99.174,-0.0188187
37.74,398.066,14.023,99.127,-0.0215462
37.97,400.366,14.016,99.076,-0.0238880
38.2,402.667,14.008,99.018,-0.0265568
38.43,404.967,13.998,98.953,-0.0293956
38.66,407.267,13.988,98.881,-0.0323599
38.89,409.568,13.977,98.802,-0.0361391
39.12,411.868,13.965,98.713,-0.0411630
39.35,414.169,13.95,98.614,-0.0452171
39.58,416.469,13.935,98.503,-0.0512997
39.81,418.769,13.917,98.376,-0.0577169
40.04,421.07,13.897,98.235,-0.0661266
40.27,423.37,13.874,98.072,-0.0768810
40.5,425.671,13.846,97.873,-0.0971736
40.73,427.971,13.81,97.619,-0.1250460
40.96,430.271,13.766,97.307,-0.1445060
41.19,432.572,13.719,96.979,-0.1539310
41.42,434.872,13.67,96.631,-0.1571990
41.65,437.173,13.613,96.228,-0.2018160
41.88,439.473,13.546,95.755,-0.2480310
42.11,441.774,13.449,95.066,-0.4061420
42.34,444.074,13.327,94.208,-0.3755490
42.57,446.374,13.196,93.28,-0.3904350
42.8,448.675,13.044,92.208,-0.4680590
43.03,450.975,12.858,90.895,-0.5868440
43.26,453.276,12.619,89.202,-0.8097710
43.49,455.576,12.329,87.153,-1.09064
43.72,457.876,11.941,84.41,-1.32051
43.95,460.177,11.5,81.292,-1.40942
44.18,462.477,10.987,77.667,-1.76429
44.41,464.778,10.354,73.192,-1.96042
44.64,467.078,9.593,67.81,-2.13278
44.88,469.378,8.739,61.774,-3.35297
45.11,471.679,7.764,54.883,-3.36954
45.34,473.979,6.557,46.351,-3.94823
45.56,476.28,5.331,37.683,-3.51864
45.79,478.58,4.123,29.147,-3.68302
46.02,480.881,2.953,20.873,-3.48214
46.25,483.181,1.842,13.023,-3.10221
46.48,485.481,0.9410000,6.651,-2.3081
46.71,487.782,0.3510000,2.483,-1.33807
46.93,490.082,0.0910000,0.6440000,-0.3785690
47.16,492.383,0.0330000,0.2310000,-0.0420557
47.39,494.683,0.0210000,0.1520000,-0.0246808
47.63,496.983,0.0160000,0.1160000,-0.0087154
47.86,499.284,0.0150000,0.1050000,-0.0027986
48.09,501.584,0.0140000,0.1010000,-0.0013264
48.32,503.885,0.0140000,0.1000000,-0.0004871
48.55,506.185,0.0140000,0.0990000,-0.0001335
48.78,508.485,0.0140000,0.1000000,-0.0001363
49.01,510.786,0.0140000,0.0990000,-0.0003922
49.24,513.086,0.0140000,0.0990000,0.0002831
49.47,515.387,0.0140000,0.0990000,-0.0001601
49.7,517.687,0.0140000,0.0990000,0.0003671
49.93,519.987,0.0140000,0.1000000,0.0002884
50.16,522.288,0.0140000,0.1000000,0.0002712
50.39,524.588,0.0140000,0.1000000,-0.0003262
50.62,526.889,0.0140000,0.1000000,-0.0001488
50.85,529.189,0.0140000,0.1000000,0.0004462
51.08,531.49,0.0140000,0.1010000,0.0001936
51.31,533.79,0.0140000,0.1010000,0.0000199
51.54,536.09,0.0140000,0.1010000,0.0003226
51.77,538.391,0.0140000,0.1020000,0.0000991
52,540.691,0.0140000,0.1010000,0.0001363
52.23,542.992,0.0140000,0.1020000,0.0001953
52.46,545.292,0.0140000,0.1020000,0.0001210
52.69,547.592,0.0140000,0.1010000,-0.0003628
52.92,549.893,0.0140000,0.1010000,-0.0002436
53.15,552.193,0.0140000,0.1000000,-0.0002181
53.38,554.494,0.0140000,0.1000000,-0.0010031
53.61,556.794,0.0140000,0.1010000,-0.0000836
53.84,559.094,0.0140000,0.1010000,-0.0000526
54.07,561.395,0.0140000,0.1000000,-0.0000603
54.3,563.695,0.0140000,0.1010000,-0.0000936
54.53,565.996,0.0140000,0.1000000,-0.0002986
54.76,568.296,0.0140000,0.1000000,0.0002816
54.99,570.597,0.0140000,0.1000000,0.0005817
55.22,572.897,0.0140000,0.1000000,-0.0000872
55.45,575.197,0.0140000,0.1000000,-0.0000323
55.68,577.498,0.0140000,0.1000000,-0.0001686
55.91,579.798,0.0140000,0.1000000,0.0002570
56.14,582.099,0.0140000,0.1000000,0.0002510
56.37,584.399,0.0140000,0.1000000,0.0000755
56.6,586.699,0.0140000,0.1000000,0.0005745
56.83,589,0.0140000,0.1000000,0.0000476
56.93,590,0.0140000,0.1000000,0.0002477