File: R/rHDPE_App/app/www/Output/TGA/Condensed_Data/Resin6_1_.csv
1.29,30,12.04,100.049,0.0035104
1.54,32.2004,12.041,100.054,0.0033302
1.78,34.4008,12.041,100.059,0.0009824
2.01,36.6012,12.042,100.062,0.0020609
2.24,38.8016,12.042,100.065,0.0021027
2.47,41.002,12.042,100.068,0.0011927
2.7,43.2024,12.043,100.07,0.0012674
2.93,45.4028,12.043,100.073,0.0010161
3.15,47.6031,12.043,100.075,0.0011314
3.37,49.8035,12.044,100.078,0.0010830
3.6,52.0039,12.044,100.081,0.0018696
3.82,54.2043,12.044,100.084,0.0017732
4.05,56.4047,12.045,100.088,0.0013477
4.27,58.6051,12.045,100.091,0.0018198
4.49,60.8055,12.046,100.094,0.0016161
4.71,63.0059,12.046,100.097,0.0010013
4.93,65.2063,12.046,100.099,0.0015214
5.15,67.4067,12.046,100.101,0.0016200
5.38,69.6071,12.047,100.104,0.0016044
5.6,71.8075,12.047,100.107,0.0010135
5.82,74.0079,12.047,100.109,0.0009247
6.04,76.2083,12.048,100.112,0.0010257
6.25,78.4086,12.048,100.114,0.0010169
6.48,80.609,12.048,100.117,0.0009609
6.7,82.8094,12.049,100.119,0.0009193
6.92,85.0098,12.049,100.121,0.0010148
7.14,87.2102,12.049,100.123,0.0010240
7.36,89.4106,12.049,100.125,0.0010526
7.58,91.611,12.05,100.128,0.0004563
7.8,93.8114,12.05,100.129,0.0005551
8.02,96.0118,12.05,100.13,0.0006425
8.24,98.2122,12.05,100.132,0.0008889
8.46,100.413,12.05,100.133,0.0004330
8.68,102.613,12.05,100.134,0.0002990
8.9,104.813,12.051,100.135,0.0005628
9.13,107.014,12.051,100.136,0.0001461
9.35,109.214,12.051,100.138,0.0007448
9.57,111.415,12.051,100.139,0.0009384
9.78,113.615,12.051,100.14,0.0003282
10,115.815,12.051,100.14,0.0001393
10.22,118.016,12.051,100.141,0.0000490
10.44,120.216,12.051,100.141,0.0000904
10.66,122.417,12.051,100.142,-0.0000922
10.88,124.617,12.051,100.142,0.0001376
11.1,126.817,12.051,100.142,0.0000000
11.33,129.018,12.051,100.143,0.0001248
11.55,131.218,12.051,100.144,-0.0002262
11.77,133.418,12.051,100.144,-0.0001051
11.98,135.619,12.051,100.144,-0.0001388
12.21,137.819,12.052,100.144,0.0001395
12.43,140.02,12.052,100.144,0.0000927
12.65,142.22,12.052,100.145,0.0005452
12.87,144.42,12.052,100.145,0.0003757
13.09,146.621,12.052,100.145,0.0001721
13.3,148.821,12.052,100.145,-0.0005001
13.52,151.022,12.052,100.145,-0.0000532
13.74,153.222,12.052,100.145,-0.0005605
13.96,155.422,12.052,100.144,-0.0006223
14.18,157.623,12.051,100.142,-0.0012997
14.4,159.823,12.051,100.138,-0.0017865
14.62,162.024,12.05,100.133,-0.0019682
14.84,164.224,12.05,100.129,-0.0020058
15.05,166.424,12.049,100.125,-0.0016188
15.28,168.625,12.049,100.122,-0.0013076
15.5,170.825,12.049,100.12,-0.0010377
15.72,173.026,12.048,100.118,-0.0010930
15.94,175.226,12.048,100.115,-0.0013865
16.17,177.426,12.048,100.112,-0.0015197
16.39,179.627,12.047,100.109,-0.0015783
16.61,181.827,12.047,100.107,-0.0015233
16.83,184.028,12.047,100.104,-0.0015164
17.05,186.228,12.046,100.101,-0.0013072
17.27,188.428,12.046,100.097,-0.0013636
17.49,190.629,12.046,100.094,-0.0011623
17.71,192.829,12.045,100.091,-0.0021095
17.93,195.029,12.045,100.087,-0.0017489
18.15,197.23,12.044,100.083,-0.0012326
18.38,199.43,12.044,100.079,-0.0022456
18.6,201.631,12.043,100.075,-0.0020452
18.81,203.831,12.043,100.071,-0.0025453
19.03,206.031,12.042,100.066,-0.0020852
19.25,208.232,12.042,100.061,-0.0023860
19.47,210.432,12.041,100.056,-0.0028046
19.69,212.633,12.04,100.052,-0.0023448
19.91,214.833,12.04,100.047,-0.0021860
20.13,217.033,12.039,100.042,-0.0019358
20.33,219.234,12.039,100.036,-0.0026676
20.55,221.434,12.038,100.031,-0.0013391
20.78,223.635,12.037,100.026,-0.0026568
21,225.835,12.037,100.02,-0.0021533
21.22,228.035,12.036,100.015,-0.0023594
21.45,230.236,12.035,100.009,-0.0024571
21.66,232.436,12.035,100.004,-0.0024145
21.88,234.637,12.034,99.998,-0.0029446
22.11,236.837,12.033,99.992,-0.0027060
22.33,239.037,12.033,99.986,-0.0023422
22.56,241.238,12.032,99.98,-0.0028129
22.78,243.438,12.031,99.975,-0.0024023
23,245.639,12.03,99.969,-0.0025710
23.22,247.839,12.03,99.963,-0.0025571
23.44,250.039,12.029,99.957,-0.0026116
23.66,252.24,12.028,99.951,-0.0023987
23.88,254.44,12.028,99.945,-0.0026373
24.1,256.64,12.027,99.939,-0.0028331
24.32,258.841,12.026,99.932,-0.0023535
24.53,261.041,12.025,99.926,-0.0029124
24.76,263.242,12.025,99.92,-0.0031751
24.98,265.442,12.024,99.913,-0.0031150
25.2,267.642,12.023,99.907,-0.0023973
25.42,269.843,12.022,99.901,-0.0028604
25.63,272.043,12.021,99.894,-0.0027089
25.85,274.244,12.021,99.888,-0.0030004
26.08,276.444,12.02,99.882,-0.0026585
26.29,278.644,12.019,99.875,-0.0035694
26.52,280.845,12.018,99.868,-0.0028684
26.73,283.045,12.018,99.861,-0.0037233
26.95,285.246,12.017,99.855,-0.0032138
27.17,287.446,12.016,99.848,-0.0029069
27.4,289.646,12.015,99.841,-0.0026037
27.61,291.847,12.014,99.834,-0.0031421
27.83,294.047,12.013,99.827,-0.0031573
28.06,296.248,12.013,99.82,-0.0034470
28.27,298.448,12.012,99.813,-0.0034691
28.49,300.648,12.011,99.806,-0.0039088
28.71,302.849,12.01,99.799,-0.0029685
28.93,305.049,12.009,99.792,-0.0026569
29.16,307.25,12.008,99.784,-0.0032106
29.39,309.45,12.007,99.777,-0.0036661
29.6,311.65,12.006,99.769,-0.0035139
29.83,313.851,12.006,99.762,-0.0036228
30.04,316.051,12.005,99.754,-0.0037426
30.26,318.251,12.004,99.747,-0.0037048
30.48,320.452,12.003,99.739,-0.0036305
30.7,322.652,12.002,99.732,-0.0035464
30.92,324.853,12.001,99.724,-0.0036368
31.15,327.053,12,99.716,-0.0035769
31.36,329.253,11.999,99.709,-0.0032097
31.58,331.454,11.998,99.702,-0.0028211
31.79,333.654,11.997,99.694,-0.0038848
32.02,335.855,11.996,99.685,-0.0039393
32.24,338.055,11.995,99.677,-0.0038102
32.45,340.255,11.994,99.669,-0.0035369
32.67,342.456,11.993,99.661,-0.0035891
32.89,344.656,11.992,99.652,-0.0034594
33.11,346.857,11.991,99.644,-0.0031435
33.33,349.057,11.99,99.636,-0.0032767
33.56,351.257,11.989,99.627,-0.0039654
33.78,353.458,11.988,99.619,-0.0042881
34,355.658,11.987,99.61,-0.0037851
34.22,357.859,11.986,99.601,-0.0040032
34.44,360.059,11.985,99.592,-0.0039705
34.66,362.259,11.984,99.583,-0.0044410
34.88,364.46,11.983,99.574,-0.0042122
35.1,366.66,11.982,99.565,-0.0040191
35.32,368.861,11.981,99.556,-0.0039269
35.54,371.061,11.98,99.546,-0.0043377
35.76,373.261,11.978,99.537,-0.0040548
35.98,375.462,11.977,99.527,-0.0038603
36.2,377.662,11.976,99.517,-0.0050557
36.39,379.862,11.975,99.509,-0.0052171
36.39,382.063,11.975,99.509,-0.0052171
36.39,384.263,11.975,99.509,-0.0052171
36.39,386.464,11.975,99.509,-0.0052171
36.39,388.664,11.975,99.509,-0.0052171
36.39,390.864,11.975,99.509,-0.0052171
36.39,393.065,11.975,99.509,-0.0052171
36.39,395.265,11.975,99.509,-0.0052171
36.39,397.466,11.975,99.509,-0.0052171
36.39,399.666,11.975,99.509,-0.0052171
36.39,401.866,11.975,99.509,-0.0052171
36.39,404.067,11.975,99.509,-0.0052171
36.39,406.267,11.975,99.509,-0.0052171
36.39,408.468,11.975,99.509,-0.0052171
36.39,410.668,11.975,99.509,-0.0052171
36.39,412.868,11.975,99.509,-0.0052171
36.39,415.069,11.975,99.509,-0.0052171
36.39,417.269,11.975,99.509,-0.0052171
36.39,419.47,11.975,99.509,-0.0052171
36.39,421.67,11.975,99.509,-0.0052171
36.39,423.87,11.975,99.509,-0.0052171
36.39,426.071,11.975,99.509,-0.0052171
36.39,428.271,11.975,99.509,-0.0052171
36.39,430.472,11.975,99.509,-0.0052171
36.39,432.672,11.975,99.509,-0.0052171
36.39,434.872,11.975,99.509,-0.0052171
36.39,437.073,11.975,99.509,-0.0052171
36.39,439.273,11.975,99.509,-0.0052171
36.39,441.473,11.975,99.509,-0.0052171
36.39,443.674,11.975,99.509,-0.0052171
36.39,445.874,11.975,99.509,-0.0052171
36.39,448.075,11.975,99.509,-0.0052171
36.39,450.275,11.975,99.509,-0.0052171
36.39,452.475,11.975,99.509,-0.0052171
36.39,454.676,11.975,99.509,-0.0052171
36.39,456.876,11.975,99.509,-0.0052171
36.39,459.077,11.975,99.509,-0.0052171
36.39,461.277,11.975,99.509,-0.0052171
36.39,463.477,11.975,99.509,-0.0052171
36.39,465.678,11.975,99.509,-0.0052171
36.39,467.878,11.975,99.509,-0.0052171
36.39,470.079,11.975,99.509,-0.0052171
36.39,472.279,11.975,99.509,-0.0052171
36.39,474.479,11.975,99.509,-0.0052171
36.39,476.68,11.975,99.509,-0.0052171
36.39,478.88,11.975,99.509,-0.0052171
36.39,481.081,11.975,99.509,-0.0052171
36.39,483.281,11.975,99.509,-0.0052171
36.39,485.481,11.975,99.509,-0.0052171
36.39,487.682,11.975,99.509,-0.0052171
36.39,489.882,11.975,99.509,-0.0052171
36.39,492.083,11.975,99.509,-0.0052171
36.39,494.283,11.975,99.509,-0.0052171
36.39,496.483,11.975,99.509,-0.0052171
36.39,498.684,11.975,99.509,-0.0052171
36.39,500.884,11.975,99.509,-0.0052171
36.39,503.084,11.975,99.509,-0.0052171
36.39,505.285,11.975,99.509,-0.0052171
36.39,507.485,11.975,99.509,-0.0052171
36.39,509.686,11.975,99.509,-0.0052171
36.39,511.886,11.975,99.509,-0.0052171
36.39,514.086,11.975,99.509,-0.0052171
36.39,516.287,11.975,99.509,-0.0052171
36.39,518.487,11.975,99.509,-0.0052171
36.39,520.688,11.975,99.509,-0.0052171
36.39,522.888,11.975,99.509,-0.0052171
36.39,525.088,11.975,99.509,-0.0052171
36.39,527.289,11.975,99.509,-0.0052171
36.39,529.489,11.975,99.509,-0.0052171
36.39,531.69,11.975,99.509,-0.0052171
36.39,533.89,11.975,99.509,-0.0052171
36.39,536.09,11.975,99.509,-0.0052171
36.39,538.291,11.975,99.509,-0.0052171
36.39,540.491,11.975,99.509,-0.0052171
36.39,542.692,11.975,99.509,-0.0052171
36.39,544.892,11.975,99.509,-0.0052171
36.39,547.092,11.975,99.509,-0.0052171
36.39,549.293,11.975,99.509,-0.0052171
36.39,551.493,11.975,99.509,-0.0052171
36.39,553.694,11.975,99.509,-0.0052171
36.39,555.894,11.975,99.509,-0.0052171
36.39,558.094,11.975,99.509,-0.0052171
36.39,560.295,11.975,99.509,-0.0052171
36.39,562.495,11.975,99.509,-0.0052171
36.39,564.695,11.975,99.509,-0.0052171
36.39,566.896,11.975,99.509,-0.0052171
36.39,569.096,11.975,99.509,-0.0052171
36.39,571.297,11.975,99.509,-0.0052171
36.39,573.497,11.975,99.509,-0.0052171
36.39,575.697,11.975,99.509,-0.0052171
36.39,577.898,11.975,99.509,-0.0052171
36.39,580.098,11.975,99.509,-0.0052171
36.39,582.299,11.975,99.509,-0.0052171
36.39,584.499,11.975,99.509,-0.0052171
36.39,586.699,11.975,99.509,-0.0052171
36.39,588.9,11.975,99.509,-0.0052171
36.39,590,11.975,99.509,-0.0052171