File: R/rHDPE_App/app/www/Output/TGA/Condensed_Data/Resin2_2_.csv
0.8800000,30,14.726,100.031,0.0004112
1.15,32.2004,14.727,100.038,0.0005334
1.4,34.4008,14.728,100.043,0.0021412
1.64,36.6012,14.728,100.048,0.0011904
1.88,38.8016,14.729,100.051,0.0005870
2.11,41.002,14.729,100.055,0.0010659
2.34,43.2024,14.73,100.058,0.0005287
2.57,45.4028,14.73,100.061,0.0016730
2.8,47.6031,14.731,100.065,0.0020932
3.03,49.8035,14.731,100.068,0.0013245
3.26,52.0039,14.732,100.071,0.0014592
3.48,54.2043,14.732,100.075,0.0018751
3.71,56.4047,14.733,100.078,0.0009335
3.93,58.6051,14.733,100.08,0.0016747
4.16,60.8055,14.734,100.083,0.0013908
4.38,63.0059,14.734,100.086,0.0016183
4.6,65.2063,14.734,100.088,0.0012921
4.82,67.4067,14.735,100.091,0.0014286
5.04,69.6071,14.735,100.093,0.0008275
5.26,71.8075,14.735,100.095,0.0007343
5.48,74.0079,14.736,100.097,0.0007794
5.7,76.2083,14.736,100.099,0.0008251
5.92,78.4086,14.736,100.101,0.0009621
6.14,80.609,14.736,100.103,0.0010075
6.36,82.8094,14.737,100.104,0.0003205
6.58,85.0098,14.737,100.106,0.0007328
6.8,87.2102,14.737,100.107,0.0005950
7.03,89.4106,14.737,100.108,0.0001829
7.25,91.611,14.737,100.109,0.0005940
7.46,93.8114,14.738,100.11,0.0003660
7.68,96.0118,14.738,100.111,0.0004120
7.9,98.2122,14.738,100.112,0.0002748
8.12,100.413,14.738,100.113,0.0003205
8.35,102.613,14.738,100.113,0.0000000
8.56,104.813,14.738,100.113,-0.0000915
8.78,107.014,14.738,100.113,-0.0000916
9,109.214,14.738,100.114,0.0000458
9.23,111.415,14.738,100.114,-0.0002288
9.45,113.615,14.738,100.114,-0.0000000
9.67,115.815,14.738,100.113,0.0001376
9.88,118.016,14.738,100.113,0.0006424
10.1,120.216,14.738,100.113,-0.0000917
10.33,122.417,14.738,100.112,-0.0000917
10.55,124.617,14.738,100.112,0.0001376
10.77,126.817,14.738,100.112,0.0000000
10.99,129.018,14.738,100.113,0.0000000
11.21,131.218,14.738,100.112,0.0000917
11.43,133.418,14.738,100.111,-0.0004060
11.64,135.619,14.738,100.11,-0.0013702
11.87,137.819,14.737,100.109,-0.0010271
12.09,140.02,14.737,100.105,-0.0021872
12.31,142.22,14.736,100.1,-0.0022994
12.52,144.42,14.735,100.096,-0.0025873
12.74,146.621,14.735,100.091,-0.0021094
12.96,148.821,14.734,100.088,-0.0015644
13.18,151.022,14.734,100.084,-0.0015157
13.4,153.222,14.733,100.081,-0.0017451
13.63,155.422,14.733,100.078,-0.0014220
13.85,157.623,14.732,100.075,-0.0009643
14.07,159.823,14.732,100.072,-0.0020682
14.29,162.024,14.731,100.068,-0.0018777
14.51,164.224,14.731,100.065,-0.0014661
14.73,166.424,14.73,100.061,-0.0018345
14.95,168.625,14.73,100.057,-0.0016043
15.17,170.825,14.729,100.053,-0.0012389
15.39,173.026,14.729,100.05,-0.0016502
15.61,175.226,14.728,100.046,-0.0021514
15.83,177.426,14.727,100.041,-0.0023352
16.05,179.627,14.727,100.037,-0.0024721
16.27,181.827,14.726,100.032,-0.0021068
16.49,184.028,14.725,100.028,-0.0024730
16.71,186.228,14.725,100.023,-0.0021988
16.93,188.428,14.724,100.019,-0.0017869
17.15,190.629,14.723,100.014,-0.0021510
17.37,192.829,14.723,100.009,-0.0023814
17.59,195.029,14.722,100.004,-0.0017882
17.81,197.23,14.721,99.999,-0.0022457
18.03,199.43,14.72,99.994,-0.0019228
18.25,201.631,14.72,99.988,-0.0021978
18.47,203.831,14.719,99.983,-0.0022436
18.69,206.031,14.718,99.978,-0.0022476
18.91,208.232,14.717,99.972,-0.0028897
19.13,210.432,14.716,99.966,-0.0023394
19.35,212.633,14.716,99.961,-0.0026983
19.57,214.833,14.715,99.955,-0.0029762
19.79,217.033,14.714,99.949,-0.0027473
20.01,219.234,14.713,99.943,-0.0032081
20.23,221.434,14.712,99.936,-0.0028873
20.46,223.635,14.711,99.93,-0.0031579
20.68,225.835,14.71,99.924,-0.0027035
20.89,228.035,14.709,99.917,-0.0029789
21.12,230.236,14.708,99.911,-0.0032095
21.33,232.436,14.707,99.904,-0.0030712
21.56,234.637,14.706,99.897,-0.0038916
21.78,236.837,14.705,99.89,-0.0029331
21.99,239.037,14.704,99.883,-0.0031113
22.22,241.238,14.703,99.876,-0.0028417
22.44,243.438,14.702,99.869,-0.0032967
22.66,245.639,14.701,99.862,-0.0032072
22.88,247.839,14.7,99.855,-0.0032063
23.1,250.039,14.699,99.847,-0.0034812
23.32,252.24,14.698,99.84,-0.0038902
23.54,254.44,14.697,99.832,-0.0037115
23.76,256.64,14.696,99.824,-0.0038955
23.98,258.841,14.694,99.816,-0.0037108
24.2,261.041,14.693,99.808,-0.0041193
24.42,263.242,14.692,99.8,-0.0035309
24.64,265.442,14.691,99.792,-0.0034862
24.86,267.642,14.69,99.784,-0.0038511
25.08,269.843,14.688,99.775,-0.0035308
25.3,272.043,14.687,99.766,-0.0039399
25.52,274.244,14.686,99.757,-0.0036663
25.74,276.444,14.684,99.748,-0.0038497
25.96,278.644,14.683,99.739,-0.0040729
26.18,280.845,14.682,99.73,-0.0038032
26.4,283.045,14.68,99.721,-0.0044408
26.62,285.246,14.679,99.712,-0.0043080
26.84,287.446,14.678,99.703,-0.0047143
27.06,289.646,14.676,99.693,-0.0038448
27.28,291.847,14.675,99.684,-0.0043522
27.5,294.047,14.673,99.674,-0.0049038
27.72,296.248,14.672,99.664,-0.0041269
27.94,298.448,14.671,99.654,-0.0047161
28.16,300.648,14.669,99.645,-0.0041697
28.38,302.849,14.668,99.635,-0.0043538
28.6,305.049,14.666,99.625,-0.0048535
28.82,307.25,14.665,99.615,-0.0043498
29.04,309.45,14.663,99.605,-0.0049405
29.26,311.65,14.662,99.595,-0.0040789
29.48,313.851,14.66,99.584,-0.0049927
29.7,316.051,14.659,99.574,-0.0047644
29.92,318.251,14.657,99.564,-0.0048553
30.14,320.452,14.656,99.553,-0.0049936
30.36,322.652,14.654,99.542,-0.0047135
30.58,324.853,14.652,99.532,-0.0050796
30.8,327.053,14.651,99.521,-0.0051693
31.02,329.253,14.649,99.51,-0.0050778
31.24,331.454,14.648,99.499,-0.0049908
31.46,333.654,14.646,99.488,-0.0057203
31.68,335.855,14.644,99.476,-0.0057587
31.9,338.055,14.643,99.465,-0.0046703
32.12,340.255,14.641,99.453,-0.0056756
32.34,342.456,14.639,99.441,-0.0060853
32.56,344.656,14.637,99.429,-0.0055435
32.78,346.857,14.635,99.416,-0.0055433
33,349.057,14.634,99.403,-0.0056745
33.22,351.257,14.632,99.39,-0.0063187
33.44,353.458,14.63,99.376,-0.0067853
33.66,355.658,14.628,99.362,-0.0065476
33.88,357.859,14.625,99.348,-0.0067283
34.1,360.059,14.623,99.333,-0.0068223
34.32,362.259,14.621,99.318,-0.0068744
34.54,364.46,14.619,99.302,-0.0075120
34.76,366.66,14.616,99.285,-0.0078211
34.99,368.861,14.614,99.267,-0.0081915
35.21,371.061,14.611,99.249,-0.0087864
35.43,373.261,14.608,99.229,-0.0089744
35.64,375.462,14.605,99.207,-0.0103442
35.86,377.662,14.601,99.184,-0.0110847
36.09,379.862,14.597,99.158,-0.0121115
36.31,382.063,14.593,99.129,-0.0136372
36.53,384.263,14.589,99.098,-0.0150641
36.74,386.464,14.583,99.062,-0.0169872
36.96,388.664,14.578,99.023,-0.0186219
37.19,390.864,14.571,98.981,-0.0192168
37.41,393.065,14.565,98.936,-0.0212912
37.63,395.265,14.558,98.887,-0.0227897
37.84,397.466,14.55,98.834,-0.0251143
38.06,399.666,14.541,98.777,-0.0277574
38.29,401.866,14.532,98.714,-0.0290379
38.51,404.067,14.522,98.645,-0.0331198
38.73,406.267,14.511,98.569,-0.0364927
38.94,408.468,14.498,98.484,-0.0405912
39.16,410.668,14.484,98.389,-0.0456960
39.39,412.868,14.469,98.283,-0.0516294
39.61,415.069,14.451,98.163,-0.0581044
39.83,417.269,14.431,98.026,-0.0663004
40.04,419.47,14.407,97.866,-0.0831042
40.26,421.67,14.376,97.656,-0.1164230
40.49,423.87,14.339,97.403,-0.1233060
40.71,426.071,14.296,97.112,-0.1480410
40.93,428.271,14.245,96.763,-0.1647900
41.14,430.472,14.187,96.368,-0.2021630
41.36,432.672,14.111,95.856,-0.2483950
41.59,434.872,14.02,95.236,-0.3321580
41.81,437.073,13.909,94.478,-0.3588600
42.03,439.273,13.778,93.593,-0.4007410
42.24,441.473,13.638,92.642,-0.4006870
42.46,443.674,13.487,91.613,-0.5392770
42.69,445.874,13.282,90.225,-0.6566390
42.91,448.075,13.039,88.573,-0.7978940
43.13,450.275,12.76,86.677,-0.8561910
43.34,452.475,12.434,84.463,-1.01439
43.57,454.676,12.052,81.867,-1.19359
43.79,456.876,11.605,78.832,-1.43897
44.01,459.077,11.083,75.285,-1.76268
44.23,461.277,10.475,71.153,-2.01892
44.45,463.477,9.774,66.394,-2.31179
44.67,465.678,8.953,60.818,-2.6793
44.89,467.878,8.012,54.424,-3.07687
45.11,470.079,6.967,47.325,-3.33282
45.33,472.279,5.8,39.4,-3.69872
45.55,474.479,4.594,31.207,-3.71542
45.77,476.68,3.37,22.889,-3.5541
45.99,478.88,2.312,15.705,-2.80738
46.2,481.081,1.438,9.765,-2.22468
46.42,483.281,0.8030000,5.458,-1.58871
46.64,485.481,0.4390000,2.984,-0.7335040
46.86,487.682,0.3030000,2.056,-0.1899710
47.08,489.882,0.2750000,1.868,-0.0382583
47.3,492.083,0.2660000,1.805,-0.0183167
47.53,494.283,0.2620000,1.78,-0.0065768
47.75,496.483,0.2610000,1.771,-0.0024883
47.96,498.684,0.2600000,1.767,-0.0010856
48.18,500.884,0.2600000,1.766,-0.0004591
48.4,503.084,0.2600000,1.765,-0.0001587
48.62,505.285,0.2600000,1.765,-0.0001821
48.84,507.485,0.2600000,1.765,-0.0002709
49.06,509.686,0.2600000,1.764,-0.0002196
49.28,511.886,0.2600000,1.764,-0.0002537
49.5,514.086,0.2600000,1.764,-0.0002103
49.72,516.287,0.2600000,1.764,0.0001889
49.94,518.487,0.2600000,1.764,0.0000250
50.16,520.688,0.2600000,1.764,-0.0002567
50.38,522.888,0.2600000,1.764,-0.0003081
50.6,525.088,0.2600000,1.763,0.0001394
50.82,527.289,0.2600000,1.763,-0.0000708
51.04,529.489,0.2590000,1.763,-0.0001265
51.26,531.69,0.2590000,1.762,-0.0000229
51.48,533.89,0.2590000,1.762,0.0001144
51.7,536.09,0.2590000,1.762,0.0000093
51.92,538.291,0.2590000,1.762,-0.0000837
52.14,540.491,0.2590000,1.762,0.0001001
52.36,542.692,0.2590000,1.761,0.0001051
52.58,544.892,0.2590000,1.761,-0.0002454
52.8,547.092,0.2590000,1.761,-0.0001345
53.02,549.293,0.2590000,1.761,0.0000064
53.24,551.493,0.2590000,1.761,-0.0001786
53.46,553.694,0.2590000,1.761,-0.0000901
53.68,555.894,0.2590000,1.761,-0.0001266
53.9,558.094,0.2590000,1.76,0.0002280
54.12,560.295,0.2590000,1.76,-0.0001965
54.34,562.495,0.2590000,1.76,-0.0001638
54.56,564.695,0.2590000,1.759,-0.0000831
54.78,566.896,0.2590000,1.759,-0.0000350
55,569.096,0.2590000,1.759,-0.0003756
55.22,571.297,0.2590000,1.758,-0.0004395
55.44,573.497,0.2590000,1.757,-0.0003587
55.66,575.697,0.2590000,1.756,-0.0005010
55.88,577.898,0.2580000,1.756,-0.0003416
56.1,580.098,0.2580000,1.754,-0.0002919
56.32,582.299,0.2580000,1.753,-0.0005194
56.54,584.499,0.2580000,1.752,-0.0009451
56.76,586.699,0.2580000,1.75,-0.0008498
56.98,588.9,0.2570000,1.748,-0.0003466
57.09,590,0.2570000,1.747,-0.0007171