File: R/rHDPE_App/app/www/Output/TGA/Condensed_Data/Resin14_1_.csv
0.7800000,30,8.884,100.025,0.0101082
1.06,32.2004,8.885,100.038,0.0064549
1.32,34.4008,8.886,100.048,0.0068820
1.56,36.6012,8.886,100.055,0.0062209
1.8,38.8016,8.887,100.062,0.0008863
2.03,41.002,8.887,100.067,0.0003881
2.26,43.2024,8.888,100.072,0.0027378
2.49,45.4028,8.888,100.076,0.0034156
2.72,47.6031,8.889,100.081,0.0004716
2.95,49.8035,8.889,100.086,0.0029152
3.18,52.0039,8.89,100.091,0.0025333
3.4,54.2043,8.89,100.095,0.0015385
3.62,56.4047,8.89,100.1,0.0023259
3.85,58.6051,8.891,100.104,0.0026415
4.07,60.8055,8.891,100.108,0.0017575
4.29,63.0059,8.892,100.113,0.0021231
4.51,65.2063,8.892,100.117,0.0015226
4.74,67.4067,8.892,100.121,0.0023031
4.95,69.6071,8.893,100.125,0.0014726
5.18,71.8075,8.893,100.129,0.0018864
5.4,74.0079,8.893,100.133,0.0014205
5.62,76.2083,8.894,100.137,0.0012385
5.84,78.4086,8.894,100.14,0.0004585
6.06,80.609,8.894,100.143,0.0014212
6.28,82.8094,8.894,100.146,0.0011902
6.5,85.0098,8.895,100.149,0.0019682
6.72,87.2102,8.895,100.152,0.0013260
6.94,89.4106,8.895,100.155,0.0016068
7.16,91.611,8.895,100.157,0.0012382
7.38,93.8114,8.896,100.16,0.0017396
7.6,96.0118,8.896,100.162,0.0009630
7.82,98.2122,8.896,100.164,0.0010972
8.04,100.413,8.896,100.167,0.0007783
8.26,102.613,8.896,100.168,0.0008235
8.48,104.813,8.897,100.17,0.0010049
8.7,107.014,8.897,100.172,0.0001832
8.92,109.214,8.897,100.173,0.0009161
9.14,111.415,8.897,100.174,0.0010521
9.36,113.615,8.897,100.175,0.0010531
9.58,115.815,8.897,100.176,0.0011500
9.8,118.016,8.897,100.177,-0.0000462
10.02,120.216,8.897,100.178,0.0007392
10.24,122.417,8.897,100.179,-0.0000001
10.46,124.617,8.897,100.18,0.0000916
10.68,126.817,8.897,100.18,0.0002738
10.9,129.018,8.897,100.18,-0.0000457
11.12,131.218,8.898,100.18,0.0003654
11.34,133.418,8.898,100.181,0.0000917
11.56,135.619,8.898,100.181,0.0008732
11.79,137.819,8.898,100.182,0.0002757
12,140.02,8.898,100.183,0.0005058
12.23,142.22,8.898,100.184,0.0004058
12.45,144.42,8.898,100.185,0.0016823
12.67,146.621,8.898,100.186,-0.0005496
12.89,148.821,8.898,100.187,-0.0001372
13.11,151.022,8.898,100.187,-0.0015445
13.33,153.222,8.898,100.185,-0.0022452
13.55,155.422,8.898,100.181,-0.0029011
13.77,157.623,8.897,100.176,-0.0016423
13.99,159.823,8.897,100.173,-0.0004118
14.21,162.024,8.897,100.17,-0.0008684
14.43,164.224,8.896,100.167,-0.0009169
14.65,166.424,8.896,100.165,-0.0008291
14.87,168.625,8.896,100.163,-0.0001377
15.09,170.825,8.896,100.16,-0.0007689
15.31,173.026,8.895,100.158,-0.0013143
15.52,175.226,8.895,100.155,-0.0011875
15.74,177.426,8.895,100.152,-0.0012871
15.96,179.627,8.895,100.149,-0.0015218
16.18,181.827,8.894,100.146,-0.0013331
16.41,184.028,8.894,100.143,-0.0009986
16.63,186.228,8.894,100.14,-0.0012064
16.85,188.428,8.894,100.136,-0.0022563
17.07,190.629,8.893,100.132,-0.0021008
17.28,192.829,8.893,100.128,-0.0016521
17.51,195.029,8.893,100.124,-0.0017325
17.72,197.23,8.892,100.12,-0.0027273
17.94,199.43,8.892,100.115,-0.0017317
18.16,201.631,8.891,100.111,-0.0030955
18.38,203.831,8.891,100.105,-0.0029014
18.6,206.031,8.89,100.101,-0.0013066
18.82,208.232,8.89,100.096,-0.0019255
19.04,210.432,8.89,100.091,-0.0021579
19.27,212.633,8.889,100.086,-0.0020171
19.48,214.833,8.889,100.081,-0.0020119
19.71,217.033,8.888,100.075,-0.0022126
19.93,219.234,8.888,100.069,-0.0027435
20.15,221.434,8.887,100.064,-0.0024245
20.37,223.635,8.887,100.058,-0.0022968
20.59,225.835,8.886,100.053,-0.0026467
20.81,228.035,8.886,100.047,-0.0035605
21.03,230.236,8.885,100.04,-0.0033828
21.26,232.436,8.884,100.033,-0.0028285
21.47,234.637,8.884,100.027,-0.0025869
21.69,236.837,8.883,100.021,-0.0026393
21.93,239.037,8.883,100.014,-0.0039289
22.17,241.238,8.882,100.008,-0.0025394
22.37,243.438,8.882,100.001,-0.0035678
22.58,245.639,8.881,99.994,-0.0035087
22.81,247.839,8.88,99.986,-0.0028417
23.02,250.039,8.88,99.979,-0.0035066
23.23,252.24,8.879,99.971,-0.0038594
23.45,254.44,8.878,99.963,-0.0046026
23.67,256.64,8.877,99.955,-0.0030330
23.88,258.841,8.877,99.947,-0.0037553
24.09,261.041,8.876,99.938,-0.0040887
24.32,263.242,8.875,99.93,-0.0037010
24.54,265.442,8.874,99.921,-0.0040382
24.76,267.642,8.874,99.912,-0.0044305
24.98,269.843,8.873,99.903,-0.0042068
25.21,272.043,8.872,99.893,-0.0040751
25.43,274.244,8.871,99.884,-0.0045279
25.65,276.444,8.87,99.874,-0.0041820
25.88,278.644,8.869,99.864,-0.0039062
26.09,280.845,8.869,99.854,-0.0042202
26.32,283.045,8.868,99.843,-0.0031927
26.54,285.246,8.867,99.832,-0.0057621
26.77,287.446,8.865,99.819,-0.0055250
26.98,289.646,8.864,99.808,-0.0055153
27.2,291.847,8.863,99.795,-0.0053457
27.42,294.047,8.862,99.782,-0.0061837
27.64,296.248,8.861,99.769,-0.0058086
27.86,298.448,8.86,99.756,-0.0057248
28.08,300.648,8.859,99.743,-0.0065827
28.32,302.849,8.857,99.729,-0.0063696
28.52,305.049,8.856,99.716,-0.0061841
28.74,307.25,8.855,99.702,-0.0062893
28.94,309.45,8.854,99.689,-0.0051760
29.17,311.65,8.853,99.674,-0.0069484
29.39,313.851,8.851,99.66,-0.0065418
29.62,316.051,8.85,99.645,-0.0058636
29.83,318.251,8.849,99.631,-0.0064894
30.06,320.452,8.847,99.616,-0.0065176
30.28,322.652,8.846,99.601,-0.0063913
30.5,324.853,8.845,99.587,-0.0071636
30.72,327.053,8.843,99.572,-0.0066818
30.94,329.253,8.842,99.557,-0.0066915
31.16,331.454,8.841,99.541,-0.0064858
31.37,333.654,8.839,99.526,-0.0073582
31.59,335.855,8.838,99.511,-0.0076445
31.82,338.055,8.837,99.495,-0.0074142
32.03,340.255,8.835,99.48,-0.0075184
32.26,342.456,8.834,99.463,-0.0071680
32.48,344.656,8.832,99.447,-0.0065609
32.7,346.857,8.831,99.431,-0.0074817
32.92,349.057,8.829,99.414,-0.0079323
33.14,351.257,8.828,99.397,-0.0087373
33.36,353.458,8.826,99.38,-0.0074168
33.58,355.658,8.825,99.363,-0.0074817
33.8,357.859,8.823,99.345,-0.0086384
34.02,360.059,8.822,99.327,-0.0079113
34.24,362.259,8.82,99.31,-0.0082383
34.45,364.46,8.819,99.292,-0.0081974
34.67,366.66,8.817,99.273,-0.0079167
34.9,368.861,8.815,99.254,-0.0082412
35.11,371.061,8.814,99.236,-0.0083230
35.34,373.261,8.812,99.217,-0.0087951
35.56,375.462,8.81,99.198,-0.0082800
35.78,377.662,8.809,99.18,-0.0089668
36,379.862,8.807,99.16,-0.0085133
36.22,382.063,8.805,99.141,-0.0084593
36.44,384.263,8.804,99.123,-0.0091654
36.66,386.464,8.802,99.104,-0.0086744
36.88,388.664,8.8,99.083,-0.0093120
37.1,390.864,8.798,99.063,-0.0091742
37.32,393.065,8.796,99.042,-0.0100095
37.54,395.265,8.794,99.02,-0.0092212
37.77,397.466,8.793,98.999,-0.0102272
37.99,399.666,8.791,98.977,-0.0095103
38.2,401.866,8.789,98.955,-0.0099137
38.42,404.067,8.787,98.933,-0.0102563
38.64,406.267,8.785,98.91,-0.0104222
38.85,408.468,8.783,98.886,-0.0112665
39.07,410.668,8.78,98.861,-0.0122591
39.3,412.868,8.778,98.834,-0.0125140
39.52,415.069,8.775,98.806,-0.0132929
39.74,417.269,8.773,98.777,-0.0129663
39.96,419.47,8.77,98.746,-0.0147442
40.19,421.67,8.767,98.713,-0.0156869
40.41,423.87,8.764,98.677,-0.0165372
40.63,426.071,8.761,98.64,-0.0176840
40.84,428.271,8.757,98.598,-0.0195455
41.06,430.472,8.753,98.554,-0.0204545
41.28,432.672,8.749,98.508,-0.0215612
41.5,434.872,8.744,98.457,-0.0240128
41.72,437.073,8.739,98.401,-0.0262318
41.94,439.273,8.734,98.342,-0.0277372
42.16,441.473,8.728,98.276,-0.0315596
42.38,443.674,8.722,98.203,-0.0346278
42.6,445.874,8.715,98.121,-0.0396426
42.81,448.075,8.706,98.027,-0.0449774
43.04,450.275,8.697,97.919,-0.0530612
43.26,452.475,8.686,97.795,-0.0599082
43.47,454.676,8.673,97.656,-0.0686888
43.69,456.876,8.659,97.491,-0.0797477
43.91,459.077,8.642,97.301,-0.0928779
44.13,461.277,8.622,97.078,-0.1097190
44.35,463.477,8.598,96.813,-0.1294040
44.57,465.678,8.567,96.455,-0.1832240
44.8,467.878,8.527,96.006,-0.2226550
45.01,470.079,8.479,95.469,-0.2535920
45.23,472.279,8.427,94.881,-0.2990120
45.45,474.479,8.362,94.146,-0.3961330
45.68,476.68,8.281,93.236,-0.4430330
45.9,478.88,8.187,92.177,-0.4669650
46.12,481.081,8.082,91,-0.5888270
46.34,483.281,7.953,89.543,-0.7382300
46.56,485.481,7.792,87.729,-0.8853970
46.78,487.682,7.603,85.609,-1.09149
47,489.882,7.373,83.014,-1.22322
47.22,492.083,7.11,80.06,-1.44144
47.43,494.283,6.808,76.659,-1.70915
47.65,496.483,6.441,72.526,-1.94303
47.87,498.684,6.031,67.902,-2.38545
48.09,500.884,5.52,62.153,-2.95316
48.31,503.084,4.912,55.301,-2.54721
48.54,505.285,4.352,48.999,-3.11547
48.76,507.485,3.747,42.191,-3.26197
48.98,509.686,3.094,34.834,-3.40284
49.2,511.886,2.385,26.85,-3.75689
49.42,514.086,1.776,20,-3.20226
49.65,516.287,1.169,13.165,-2.70945
49.86,518.487,0.7070000,7.958,-2.0927
50.08,520.688,0.3700000,4.17,-1.31126
50.3,522.888,0.1910000,2.149,-0.5934860
50.52,525.088,0.1210000,1.362,-0.1731820
50.74,527.289,0.1030000,1.162,-0.0667323
50.96,529.489,0.0940000,1.057,-0.0297799
51.18,531.69,0.0900000,1.016,-0.0108804
51.4,533.89,0.0890000,1.001,-0.0041792
51.62,536.09,0.0880000,0.9950000,-0.0018951
51.84,538.291,0.0880000,0.9930000,-0.0009589
52.06,540.491,0.0880000,0.9920000,-0.0001488
52.27,542.692,0.0880000,0.9920000,0.0003317
52.49,544.892,0.0880000,0.9920000,-0.0002525
52.72,547.092,0.0880000,0.9920000,0.0000685
52.94,549.293,0.0880000,0.9920000,-0.0002173
53.16,551.493,0.0880000,0.9920000,0.0002074
53.38,553.694,0.0880000,0.9920000,-0.0001371
53.6,555.894,0.0880000,0.9930000,-0.0004516
53.82,558.094,0.0880000,0.9920000,-0.0006255
54.04,560.295,0.0880000,0.9920000,-0.0004695
54.26,562.495,0.0880000,0.9920000,0.0011110
54.48,564.695,0.0880000,0.9920000,-0.0004747
54.7,566.896,0.0880000,0.9910000,0.0010241
54.92,569.096,0.0880000,0.9910000,0.0001880
55.14,571.297,0.0880000,0.9910000,0.0002650
55.36,573.497,0.0880000,0.9910000,0.0007061
55.58,575.697,0.0880000,0.9910000,-0.0003437
55.81,577.898,0.0880000,0.9910000,0.0002276
56.02,580.098,0.0880000,0.9910000,0.0000433
56.24,582.299,0.0880000,0.9910000,0.0002437
56.46,584.499,0.0880000,0.9910000,0.0000452
56.68,586.699,0.0880000,0.9910000,-0.0001209
56.9,588.9,0.0880000,0.9910000,-0.0004377
57.01,590,0.0880000,0.9910000,-0.0002764