File: R/rHDPE_App/app/www/Output/TGA/Condensed_Data/Resin14_0_.csv
0.7000000,30,13.436,100.017,0.0074940
1,32.3004,13.438,100.028,0.0041871
1.27,34.6008,13.438,100.034,0.0024343
1.53,36.9012,13.439,100.038,0.0017570
1.78,39.2016,13.439,100.042,0.0022636
2.02,41.5021,13.44,100.045,0.0014598
2.27,43.8025,13.44,100.049,0.0012573
2.51,46.1029,13.441,100.052,0.0010078
2.75,48.4033,13.441,100.055,0.0012850
2.99,50.7037,13.442,100.059,0.0014176
3.22,53.0041,13.442,100.062,0.0011756
3.46,55.3045,13.442,100.065,0.0017784
3.69,57.6049,13.443,100.068,0.0010714
3.93,59.9053,13.443,100.071,0.0005577
4.16,62.2058,13.444,100.073,0.0010651
4.39,64.5062,13.444,100.076,0.0009245
4.63,66.8066,13.444,100.078,0.0010113
4.86,69.107,13.445,100.08,0.0008288
5.09,71.4074,13.445,100.083,0.0007353
5.32,73.7078,13.445,100.085,0.0009178
5.55,76.0082,13.445,100.087,0.0008250
5.78,78.3086,13.446,100.089,0.0011910
6.01,80.609,13.446,100.09,0.0010057
6.24,82.9094,13.446,100.092,0.0004576
6.47,85.2099,13.446,100.093,0.0006862
6.7,87.5103,13.447,100.095,0.0005042
6.93,89.8107,13.447,100.096,0.0008693
7.16,92.1111,13.447,100.097,0.0001827
7.39,94.4115,13.447,100.098,0.0001830
7.62,96.7119,13.447,100.099,0.0006417
7.85,99.0123,13.447,100.099,0.0003668
8.08,101.313,13.447,100.1,0.0002287
8.31,103.613,13.447,100.1,-0.0000457
8.54,105.914,13.447,100.101,-0.0001830
8.77,108.214,13.447,100.101,0.0001374
9,110.514,13.447,100.1,0.0005950
9.23,112.815,13.447,100.1,-0.0000459
9.46,115.115,13.447,100.101,-0.0001373
9.69,117.416,13.447,100.101,-0.0003208
9.92,119.716,13.447,100.101,-0.0000918
10.15,122.016,13.447,100.1,0.0004127
10.38,124.317,13.447,100.101,0.0002750
10.61,126.617,13.447,100.101,-0.0001374
10.84,128.918,13.447,100.101,-0.0002750
11.07,131.218,13.447,100.101,-0.0000458
11.3,133.518,13.447,100.101,0.0000458
11.53,135.819,13.447,100.101,-0.0002746
11.76,138.119,13.447,100.1,-0.0004118
11.99,140.42,13.447,100.098,-0.0005945
12.22,142.72,13.447,100.095,-0.0015977
12.45,145.021,13.446,100.09,-0.0023733
12.68,147.321,13.445,100.084,-0.0018696
12.91,149.621,13.444,100.08,-0.0020174
13.14,151.922,13.444,100.075,-0.0018842
13.37,154.222,13.443,100.072,-0.0014181
13.6,156.523,13.443,100.068,-0.0017452
13.83,158.823,13.442,100.064,-0.0018357
14.06,161.123,13.442,100.06,-0.0016514
14.29,163.424,13.441,100.056,-0.0020690
14.52,165.724,13.441,100.052,-0.0012838
14.75,168.025,13.44,100.047,-0.0022894
14.98,170.325,13.439,100.042,-0.0016488
15.21,172.625,13.439,100.037,-0.0022430
15.44,174.926,13.438,100.032,-0.0022419
15.67,177.226,13.437,100.026,-0.0023377
15.9,179.527,13.437,100.02,-0.0026569
16.13,181.827,13.436,100.015,-0.0024778
16.36,184.128,13.435,100.008,-0.0024407
16.6,186.428,13.434,100.002,-0.0022422
16.83,188.728,13.433,99.996,-0.0027437
17.05,191.029,13.432,99.989,-0.0031564
17.28,193.329,13.431,99.983,-0.0028799
17.51,195.63,13.431,99.976,-0.0030256
17.74,197.93,13.43,99.968,-0.0031672
17.98,200.23,13.429,99.961,-0.0028873
18.21,202.531,13.428,99.954,-0.0030673
18.44,204.831,13.427,99.946,-0.0033904
18.67,207.132,13.426,99.939,-0.0035266
18.9,209.432,13.424,99.931,-0.0037078
19.13,211.732,13.423,99.923,-0.0035244
19.36,214.033,13.422,99.915,-0.0033502
19.59,216.333,13.421,99.907,-0.0034394
19.82,218.634,13.42,99.9,-0.0038937
20.05,220.934,13.419,99.891,-0.0033848
20.28,223.235,13.418,99.883,-0.0036607
20.51,225.535,13.417,99.875,-0.0039475
20.74,227.835,13.416,99.866,-0.0039548
20.97,230.136,13.415,99.858,-0.0036295
21.2,232.436,13.414,99.849,-0.0038123
21.43,234.737,13.412,99.84,-0.0040139
21.66,237.037,13.411,99.831,-0.0039846
21.89,239.337,13.41,99.821,-0.0039467
22.12,241.638,13.409,99.812,-0.0043021
22.35,243.938,13.407,99.803,-0.0038948
22.58,246.239,13.406,99.793,-0.0047759
22.81,248.539,13.405,99.783,-0.0043466
23.04,250.839,13.403,99.772,-0.0050279
23.27,253.14,13.402,99.762,-0.0047489
23.5,255.44,13.4,99.751,-0.0049922
23.73,257.741,13.399,99.739,-0.0055353
23.96,260.041,13.397,99.727,-0.0053338
24.19,262.341,13.395,99.714,-0.0058737
24.42,264.642,13.394,99.701,-0.0053512
24.65,266.942,13.392,99.688,-0.0058958
24.88,269.243,13.39,99.675,-0.0063187
25.11,271.543,13.388,99.66,-0.0057164
25.34,273.844,13.386,99.646,-0.0064502
25.57,276.144,13.384,99.632,-0.0057109
25.8,278.444,13.382,99.618,-0.0066788
26.03,280.745,13.38,99.603,-0.0068286
26.26,283.045,13.378,99.588,-0.0067148
26.49,285.346,13.376,99.572,-0.0067803
26.72,287.646,13.374,99.557,-0.0067828
26.95,289.946,13.372,99.542,-0.0066347
27.18,292.247,13.37,99.526,-0.0068431
27.41,294.547,13.368,99.511,-0.0065440
27.64,296.848,13.366,99.495,-0.0068323
27.87,299.148,13.364,99.479,-0.0069927
28.1,301.448,13.362,99.463,-0.0065657
28.33,303.749,13.359,99.446,-0.0069304
28.56,306.049,13.357,99.43,-0.0065440
28.79,308.35,13.355,99.413,-0.0074109
29.03,310.65,13.353,99.397,-0.0071794
29.26,312.951,13.35,99.379,-0.0074312
29.48,315.251,13.348,99.362,-0.0078024
29.72,317.551,13.346,99.345,-0.0077064
29.94,319.852,13.343,99.327,-0.0073853
30.18,322.152,13.341,99.309,-0.0079285
30.41,324.453,13.338,99.29,-0.0085133
30.64,326.753,13.336,99.272,-0.0075939
30.87,329.053,13.333,99.252,-0.0085670
31.1,331.354,13.331,99.234,-0.0086949
31.33,333.654,13.328,99.214,-0.0091999
31.56,335.955,13.326,99.194,-0.0088435
31.79,338.255,13.323,99.174,-0.0090169
32.02,340.555,13.32,99.154,-0.0091060
32.25,342.856,13.317,99.133,-0.0096102
32.48,345.156,13.314,99.112,-0.0089073
32.71,347.457,13.312,99.091,-0.0093916
32.94,349.757,13.309,99.069,-0.0098255
33.17,352.058,13.306,99.047,-0.0098263
33.4,354.358,13.303,99.024,-0.0099123
33.63,356.658,13.3,99.002,-0.0102696
33.86,358.959,13.297,98.978,-0.0101283
34.09,361.259,13.293,98.955,-0.0104796
34.32,363.56,13.29,98.931,-0.0102106
34.55,365.86,13.287,98.907,-0.0107542
34.78,368.16,13.284,98.882,-0.0108417
35.01,370.461,13.28,98.857,-0.0109432
35.24,372.761,13.277,98.831,-0.0110632
35.47,375.062,13.273,98.805,-0.0116831
35.7,377.362,13.27,98.778,-0.0123971
35.93,379.662,13.266,98.749,-0.0129168
36.16,381.963,13.262,98.719,-0.0134542
36.39,384.263,13.257,98.687,-0.0140008
36.62,386.564,13.253,98.653,-0.0149452
36.85,388.864,13.248,98.616,-0.0161482
37.08,391.164,13.243,98.578,-0.0171627
37.31,393.465,13.237,98.535,-0.0192872
37.54,395.765,13.231,98.489,-0.0210123
37.77,398.066,13.224,98.437,-0.0236899
38,400.366,13.216,98.381,-0.0255833
38.23,402.667,13.208,98.32,-0.0272644
38.46,404.967,13.199,98.255,-0.0289185
38.69,407.267,13.19,98.186,-0.0311931
38.92,409.568,13.18,98.109,-0.0348432
39.15,411.868,13.168,98.023,-0.0405355
39.38,414.169,13.155,97.923,-0.0467721
39.61,416.469,13.139,97.806,-0.0548322
39.84,418.769,13.121,97.67,-0.0643275
40.07,421.07,13.099,97.509,-0.0747930
40.3,423.37,13.073,97.318,-0.0929099
40.53,425.671,13.039,97.064,-0.1240390
40.76,427.971,12.997,96.748,-0.1516110
40.99,430.271,12.947,96.377,-0.1707610
41.22,432.572,12.888,95.937,-0.2120530
41.45,434.872,12.816,95.401,-0.2550870
41.68,437.173,12.73,94.76,-0.3089870
41.91,439.473,12.622,93.955,-0.3904130
42.14,441.774,12.484,92.929,-0.4869610
42.37,444.074,12.33,91.786,-0.5433260
42.6,446.374,12.137,90.347,-0.6933940
42.83,448.675,11.9,88.583,-0.8448260
43.06,450.975,11.605,86.383,-1.05965
43.29,453.276,11.261,83.824,-1.22331
43.52,455.576,10.865,80.88,-1.41265
43.75,457.876,10.38,77.267,-1.71931
43.98,460.177,9.81,73.021,-1.96435
44.21,462.477,9.121,67.898,-2.31309
44.44,464.778,8.326,61.979,-2.8588
44.67,467.078,7.412,55.173,-3.06337
44.9,469.378,6.376,47.463,-3.19564
45.13,471.679,5.374,40.001,-3.34663
45.36,473.979,4.242,31.574,-3.56931
45.59,476.28,3.142,23.391,-3.40042
45.82,478.58,2.125,15.819,-3.09864
46.05,480.881,1.249,9.297,-2.48948
46.28,483.181,0.6160000,4.587,-1.61219
46.5,485.481,0.2720000,2.024,-0.6616750
46.73,487.782,0.1540000,1.143,-0.1580390
46.96,490.082,0.1320000,0.9860000,-0.0372636
47.19,492.383,0.1250000,0.9270000,-0.0154333
47.43,494.683,0.1220000,0.9050000,-0.0055020
47.66,496.983,0.1210000,0.8980000,-0.0014584
47.89,499.284,0.1200000,0.8950000,-0.0008458
48.12,501.584,0.1200000,0.8940000,0.0000212
48.34,503.885,0.1200000,0.8940000,0.0002389
48.58,506.185,0.1200000,0.8940000,-0.0002931
48.81,508.485,0.1200000,0.8930000,-0.0003677
49.04,510.786,0.1200000,0.8930000,-0.0000117
49.26,513.086,0.1200000,0.8930000,0.0003471
49.49,515.387,0.1200000,0.8930000,-0.0002045
49.73,517.687,0.1200000,0.8930000,-0.0000980
49.96,519.987,0.1200000,0.8920000,0.0000542
50.19,522.288,0.1200000,0.8920000,-0.0003616
50.41,524.588,0.1200000,0.8920000,0.0000758
50.64,526.889,0.1200000,0.8920000,-0.0001235
50.88,529.189,0.1200000,0.8920000,-0.0002096
51.1,531.49,0.1200000,0.8920000,-0.0003214
51.33,533.79,0.1200000,0.8910000,-0.0005240
51.56,536.09,0.1200000,0.8900000,-0.0002297
51.79,538.391,0.1200000,0.8900000,0.0002988
52.03,540.691,0.1200000,0.8900000,-0.0001029
52.26,542.992,0.1190000,0.8890000,-0.0002871
52.49,545.292,0.1190000,0.8890000,0.0000089
52.71,547.592,0.1190000,0.8890000,-0.0003967
52.94,549.893,0.1190000,0.8880000,-0.0004933
53.17,552.193,0.1190000,0.8870000,0.0002651
53.4,554.494,0.1190000,0.8870000,-0.0002554
53.63,556.794,0.1190000,0.8860000,-0.0005528
53.86,559.094,0.1190000,0.8850000,-0.0006017
54.09,561.395,0.1190000,0.8840000,-0.0003251
54.32,563.695,0.1190000,0.8830000,-0.0006431
54.55,565.996,0.1180000,0.8810000,-0.0007273
54.78,568.296,0.1180000,0.8800000,-0.0008100
55.01,570.597,0.1180000,0.8780000,-0.0006907
55.24,572.897,0.1180000,0.8760000,-0.0009647
55.47,575.197,0.1170000,0.8740000,-0.0011423
55.7,577.498,0.1170000,0.8710000,-0.0013568
55.93,579.798,0.1170000,0.8680000,-0.0012144
56.16,582.099,0.1160000,0.8660000,-0.0010414
56.39,584.399,0.1160000,0.8630000,-0.0009730
56.62,586.699,0.1160000,0.8610000,-0.0011433
56.85,589,0.1150000,0.8580000,-0.0005806
56.95,590,0.1150000,0.8570000,-0.0013611