File: R/rHDPE_App/app/www/Output/TGA/Condensed_Data/Resin19_0__1.csv
0.6400000,30,14.447,100.016,0.0008572
0.9500000,32.3004,14.448,100.028,0.0025780
1.22,34.6008,14.449,100.034,0.0026703
1.48,36.9012,14.45,100.038,0.0003032
1.73,39.2016,14.451,100.042,0.0021678
1.98,41.5021,14.451,100.046,0.0028248
2.22,43.8025,14.452,100.049,0.0016884
2.46,46.1029,14.452,100.053,0.0006701
2.7,48.4033,14.453,100.056,0.0016161
2.94,50.7037,14.453,100.06,0.0011346
3.18,53.0041,14.454,100.063,0.0011758
3.41,55.3045,14.454,100.067,0.0016386
3.64,57.6049,14.455,100.07,0.0009794
3.88,59.9053,14.455,100.073,0.0014402
4.11,62.2058,14.455,100.076,0.0012511
4.35,64.5062,14.456,100.079,0.0012014
4.58,66.8066,14.456,100.082,0.0011066
4.81,69.107,14.457,100.084,0.0017491
5.04,71.4074,14.457,100.087,0.0014246
5.27,73.7078,14.457,100.089,0.0009181
5.5,76.0082,14.458,100.092,0.0010540
5.73,78.3086,14.458,100.094,0.0007787
5.96,80.609,14.458,100.096,0.0008246
6.19,82.9094,14.459,100.098,0.0008246
6.42,85.2099,14.459,100.1,0.0008235
6.65,87.5103,14.459,100.102,0.0008237
6.88,89.8107,14.459,100.103,0.0001831
7.11,92.1111,14.46,100.105,0.0000000
7.34,94.4115,14.46,100.106,0.0009154
7.57,96.7119,14.46,100.107,0.0006409
7.8,99.0123,14.46,100.109,0.0004120
8.03,101.313,14.46,100.11,0.0005494
8.26,103.613,14.46,100.111,0.0005496
8.49,105.914,14.461,100.111,0.0001374
8.72,108.214,14.461,100.112,0.0003206
8.95,110.514,14.461,100.113,0.0000916
9.18,112.815,14.461,100.114,0.0004580
9.41,115.115,14.461,100.115,0.0003206
9.64,117.416,14.461,100.115,0.0000458
9.87,119.716,14.461,100.116,0.0005957
10.1,122.016,14.461,100.116,0.0004585
10.33,124.317,14.461,100.117,0.0003210
10.57,126.617,14.461,100.118,0.0005049
10.8,128.918,14.462,100.119,0.0004589
11.03,131.218,14.462,100.12,0.0004132
11.26,133.518,14.462,100.121,0.0003211
11.49,135.819,14.462,100.122,0.0000916
11.72,138.119,14.462,100.122,0.0000457
11.95,140.42,14.462,100.122,-0.0004110
12.18,142.72,14.462,100.121,-0.0005463
12.4,145.021,14.462,100.119,-0.0016766
12.63,147.321,14.461,100.115,-0.0018552
12.86,149.621,14.46,100.111,-0.0017316
13.09,151.922,14.46,100.108,-0.0010101
13.32,154.222,14.46,100.106,-0.0005071
13.55,156.523,14.46,100.104,-0.0001383
13.78,158.823,14.459,100.103,-0.0002762
14.02,161.123,14.459,100.102,-0.0005978
14.25,163.424,14.459,100.101,-0.0004132
14.48,165.724,14.459,100.1,-0.0007337
14.71,168.025,14.459,100.099,-0.0001834
14.94,170.325,14.459,100.098,-0.0006876
15.17,172.625,14.458,100.096,-0.0006418
15.4,174.926,14.458,100.095,-0.0006879
15.63,177.226,14.458,100.094,-0.0006414
15.86,179.527,14.458,100.093,-0.0000916
16.09,181.827,14.458,100.091,-0.0008247
16.32,184.128,14.457,100.09,-0.0006874
16.55,186.428,14.457,100.088,-0.0004122
16.78,188.728,14.457,100.087,-0.0012823
17.01,191.029,14.457,100.085,-0.0008244
17.24,193.329,14.457,100.083,-0.0006877
17.47,195.63,14.456,100.082,-0.0006875
17.7,197.93,14.456,100.08,-0.0008247
17.93,200.23,14.456,100.078,-0.0011449
18.16,202.531,14.455,100.076,-0.0006410
18.39,204.831,14.455,100.075,-0.0005952
18.62,207.132,14.455,100.073,-0.0011450
18.85,209.432,14.455,100.071,-0.0010534
19.08,211.732,14.454,100.069,-0.0008249
19.31,214.033,14.454,100.067,-0.0005955
19.54,216.333,14.454,100.065,-0.0009160
19.77,218.634,14.454,100.063,-0.0013295
20,220.934,14.453,100.061,-0.0007336
20.23,223.235,14.453,100.058,-0.0005962
20.46,225.535,14.453,100.056,-0.0011463
20.69,227.835,14.452,100.054,-0.0010541
20.93,230.136,14.452,100.052,-0.0008709
21.16,232.436,14.452,100.05,-0.0006412
21.38,234.737,14.451,100.047,-0.0010992
21.62,237.037,14.451,100.045,-0.0010078
21.84,239.337,14.451,100.042,-0.0009619
22.08,241.638,14.45,100.04,-0.0008708
22.31,243.938,14.45,100.037,-0.0007331
22.53,246.239,14.449,100.034,-0.0008699
22.77,248.539,14.449,100.031,-0.0016032
23,250.839,14.449,100.028,-0.0013287
23.23,253.14,14.448,100.025,-0.0016952
23.46,255.44,14.448,100.022,-0.0010993
23.69,257.741,14.447,100.019,-0.0009163
23.92,260.041,14.447,100.016,-0.0012829
24.15,262.341,14.446,100.012,-0.0017409
24.38,264.642,14.446,100.009,-0.0015577
24.61,266.942,14.445,100.005,-0.0016493
24.84,269.243,14.445,100.001,-0.0009613
25.07,271.543,14.444,99.997,-0.0010531
25.3,273.844,14.444,99.993,-0.0017867
25.53,276.144,14.443,99.989,-0.0017850
25.76,278.444,14.442,99.985,-0.0022436
25.99,280.745,14.442,99.981,-0.0021073
26.22,283.045,14.441,99.977,-0.0018763
26.45,285.346,14.44,99.972,-0.0018315
26.68,287.646,14.44,99.967,-0.0021990
26.91,289.946,14.439,99.963,-0.0022453
27.14,292.247,14.438,99.958,-0.0020153
27.37,294.547,14.438,99.953,-0.0022902
27.6,296.848,14.437,99.948,-0.0025183
27.83,299.148,14.436,99.942,-0.0024275
28.06,301.448,14.435,99.937,-0.0023822
28.29,303.749,14.435,99.932,-0.0028398
28.52,306.049,14.434,99.926,-0.0021074
28.75,308.35,14.433,99.92,-0.0019224
28.98,310.65,14.432,99.914,-0.0027000
29.21,312.951,14.431,99.908,-0.0030706
29.44,315.251,14.43,99.902,-0.0036200
29.67,317.551,14.429,99.895,-0.0030203
29.9,319.852,14.428,99.889,-0.0026557
30.13,322.152,14.428,99.883,-0.0029785
30.36,324.453,14.427,99.876,-0.0031152
30.59,326.753,14.426,99.87,-0.0028862
30.82,329.053,14.425,99.863,-0.0030220
31.05,331.354,14.424,99.856,-0.0027488
31.28,333.654,14.423,99.849,-0.0032497
31.51,335.955,14.422,99.842,-0.0036133
31.74,338.255,14.421,99.835,-0.0032039
31.97,340.555,14.42,99.828,-0.0032051
32.2,342.856,14.419,99.82,-0.0034812
32.43,345.156,14.417,99.813,-0.0027014
32.66,347.457,14.416,99.806,-0.0033400
32.89,349.757,14.415,99.798,-0.0034768
33.12,352.058,14.414,99.79,-0.0035714
33.35,354.358,14.413,99.782,-0.0033407
33.58,356.658,14.412,99.773,-0.0035703
33.81,358.959,14.41,99.764,-0.0044872
34.04,361.259,14.409,99.755,-0.0041667
34.27,363.56,14.408,99.745,-0.0041643
34.5,365.86,14.406,99.734,-0.0051740
34.73,368.16,14.404,99.722,-0.0051740
34.96,370.461,14.402,99.709,-0.0058639
35.19,372.761,14.4,99.696,-0.0067308
35.42,375.062,14.398,99.68,-0.0072762
35.65,377.362,14.396,99.664,-0.0072802
35.88,379.662,14.393,99.645,-0.0083838
36.11,381.963,14.39,99.625,-0.0091748
36.34,384.263,14.387,99.602,-0.0106752
36.57,386.564,14.383,99.576,-0.0123010
36.8,388.864,14.379,99.547,-0.0135631
37.03,391.164,14.374,99.514,-0.0150321
37.26,393.465,14.369,99.476,-0.0168956
37.49,395.765,14.363,99.435,-0.0190087
37.72,398.066,14.356,99.389,-0.0215778
37.95,400.366,14.349,99.336,-0.0246614
38.18,402.667,14.34,99.275,-0.0276404
38.41,404.967,14.33,99.208,-0.0312443
38.64,407.267,14.319,99.134,-0.0339432
38.87,409.568,14.308,99.052,-0.0370421
39.1,411.868,14.295,98.962,-0.0410565
39.33,414.169,14.28,98.862,-0.0455418
39.56,416.469,14.264,98.752,-0.0507041
39.79,418.769,14.246,98.628,-0.0564354
40.02,421.07,14.226,98.491,-0.0633700
40.25,423.37,14.204,98.337,-0.0695918
40.48,425.671,14.179,98.163,-0.0826782
40.71,427.971,14.148,97.945,-0.1094700
40.94,430.271,14.109,97.679,-0.1223230
41.17,432.572,14.065,97.371,-0.1419550
41.4,434.872,14.014,97.018,-0.1730850
41.63,437.173,13.954,96.608,-0.1859800
41.86,439.473,13.88,96.09,-0.2782730
42.09,441.774,13.764,95.287,-0.4066910
42.32,444.074,13.622,94.306,-0.4521720
42.55,446.374,13.455,93.15,-0.5605770
42.78,448.675,13.255,91.767,-0.6753470
43.01,450.975,12.998,89.987,-0.9164520
43.24,453.276,12.68,87.786,-1.15347
43.47,455.576,12.381,85.715,-1.04394
43.7,457.876,11.952,82.745,-1.58117
43.94,460.177,11.351,78.58,-1.86446
44.17,462.477,10.659,73.794,-2.11624
44.4,464.778,9.859,68.258,-2.47529
44.63,467.078,8.854,61.296,-2.41935
44.86,469.378,7.899,54.683,-2.71012
45.08,471.679,6.797,47.056,-3.97774
45.31,473.979,5.538,38.339,-4.2407
45.55,476.28,4.188,28.995,-3.49578
45.77,478.58,3.003,20.793,-3.68037
46,480.881,1.867,12.923,-3.18367
46.23,483.181,0.9270000,6.42,-2.33473
46.46,485.481,0.3370000,2.332,-1.26993
46.69,487.782,0.0770000,0.5320000,-0.3637910
46.91,490.082,0.0280000,0.1910000,-0.0343445
47.14,492.383,0.0170000,0.1190000,-0.0213229
47.38,494.683,0.0130000,0.0900000,-0.0067392
47.61,496.983,0.0120000,0.0810000,-0.0013776
47.84,499.284,0.0110000,0.0790000,-0.0003276
48.07,501.584,0.0110000,0.0780000,0.0001712
48.3,503.885,0.0110000,0.0790000,0.0003150
48.53,506.185,0.0110000,0.0790000,0.0004812
48.76,508.485,0.0110000,0.0790000,0.0003156
48.99,510.786,0.0120000,0.0800000,0.0004227
49.22,513.086,0.0120000,0.0800000,0.0000866
49.45,515.387,0.0120000,0.0810000,0.0000282
49.68,517.687,0.0120000,0.0810000,0.0004690
49.91,519.987,0.0120000,0.0810000,-0.0000152
50.14,522.288,0.0120000,0.0820000,0.0001565
50.37,524.588,0.0120000,0.0820000,-0.0000808
50.6,526.889,0.0120000,0.0830000,0.0000498
50.83,529.189,0.0120000,0.0830000,0.0004243
51.06,531.49,0.0120000,0.0830000,-0.0000004
51.29,533.79,0.0120000,0.0830000,-0.0000934
51.52,536.09,0.0120000,0.0840000,0.0003938
51.75,538.391,0.0120000,0.0840000,0.0002076
51.98,540.691,0.0120000,0.0840000,-0.0000265
52.21,542.992,0.0120000,0.0850000,0.0005491
52.44,545.292,0.0120000,0.0850000,0.0001833
52.67,547.592,0.0120000,0.0860000,-0.0001193
52.9,549.893,0.0120000,0.0860000,0.0001487
53.13,552.193,0.0130000,0.0870000,0.0005359
53.36,554.494,0.0130000,0.0870000,0.0002605
53.59,556.794,0.0130000,0.0880000,0.0001901
53.82,559.094,0.0130000,0.0880000,0.0006558
54.05,561.395,0.0130000,0.0890000,0.0005569
54.28,563.695,0.0130000,0.0900000,0.0005516
54.51,565.996,0.0130000,0.0910000,0.0002525
54.74,568.296,0.0130000,0.0920000,0.0006397
54.97,570.597,0.0130000,0.0930000,0.0006548
55.2,572.897,0.0140000,0.0940000,0.0004914
55.43,575.197,0.0140000,0.0960000,0.0004584
55.66,577.498,0.0140000,0.0970000,0.0005685
55.89,579.798,0.0140000,0.0980000,0.0006965
56.12,582.099,0.0140000,0.1000000,0.0008901
56.35,584.399,0.0150000,0.1020000,0.0010511
56.58,586.699,0.0150000,0.1040000,0.0007743
56.81,589,0.0150000,0.1060000,0.0011047
56.91,590,0.0150000,0.1070000,0.0010418