File: R/rHDPE_App/app/www/Output/TGA/Condensed_Data/Resin21_1__1.csv
0.9700000,30,11.383,100.037,0.0062378
1.23,32.2004,11.384,100.045,0.0017285
1.48,34.4008,11.385,100.05,0.0014141
1.72,36.6012,11.385,100.055,0.0027172
1.96,38.8016,11.386,100.059,0.0020976
2.19,41.002,11.386,100.063,0.0022739
2.42,43.2024,11.387,100.067,0.0023061
2.65,45.4028,11.387,100.071,0.0014311
2.88,47.6031,11.388,100.075,0.0015657
3.11,49.8035,11.388,100.079,0.0020762
3.34,52.0039,11.388,100.082,0.0015490
3.56,54.2043,11.389,100.086,0.0012161
3.79,56.4047,11.389,100.09,0.0018644
4.01,58.6051,11.39,100.093,0.0016253
4.23,60.8055,11.39,100.097,0.0018518
4.45,63.0059,11.39,100.099,0.0012488
4.68,65.2063,11.391,100.102,0.0008316
4.9,67.4067,11.391,100.105,0.0008291
5.12,69.6071,11.391,100.108,0.0018383
5.34,71.8075,11.392,100.111,0.0015151
5.56,74.0079,11.392,100.114,0.0010549
5.78,76.2083,11.392,100.116,0.0009163
6,78.4086,11.392,100.118,0.0010525
6.22,80.609,11.393,100.12,0.0008241
6.44,82.8094,11.393,100.121,0.0008698
6.66,85.0098,11.393,100.123,0.0002291
6.88,87.2102,11.393,100.125,0.0004114
7.1,89.4106,11.393,100.126,0.0008714
7.32,91.611,11.394,100.127,0.0007784
7.54,93.8114,11.394,100.128,0.0003202
7.76,96.0118,11.394,100.129,0.0005030
7.98,98.2122,11.394,100.13,0.0003200
8.2,100.413,11.394,100.13,0.0004572
8.42,102.613,11.394,100.131,0.0002743
8.64,104.813,11.394,100.131,0.0004579
8.86,107.014,11.394,100.131,0.0001374
9.08,109.214,11.394,100.131,0.0002748
9.3,111.415,11.394,100.131,0.0003204
9.52,113.615,11.394,100.131,-0.0004579
9.74,115.815,11.394,100.131,-0.0003207
9.96,118.016,11.394,100.131,-0.0000917
10.18,120.216,11.394,100.131,0.0000917
10.4,122.417,11.394,100.131,0.0003671
10.62,124.617,11.394,100.131,-0.0000918
10.84,126.817,11.394,100.131,0.0003213
11.06,129.018,11.394,100.132,0.0000000
11.28,131.218,11.394,100.132,-0.0001833
11.5,133.418,11.394,100.13,-0.0007293
11.72,135.619,11.393,100.126,-0.0022721
11.94,137.819,11.393,100.121,-0.0025392
12.16,140.02,11.392,100.115,-0.0027788
12.38,142.22,11.392,100.11,-0.0019725
12.6,144.42,11.391,100.106,-0.0020686
12.82,146.621,11.391,100.102,-0.0016536
13.04,148.821,11.39,100.098,-0.0012859
13.26,151.022,11.39,100.095,-0.0013802
13.48,153.222,11.389,100.091,-0.0020633
13.7,155.422,11.389,100.087,-0.0024301
13.92,157.623,11.389,100.083,-0.0019703
14.14,159.823,11.388,100.079,-0.0019248
14.36,162.024,11.388,100.075,-0.0022908
14.58,164.224,11.387,100.071,-0.0018790
14.8,166.424,11.387,100.066,-0.0023367
15.02,168.625,11.386,100.061,-0.0025653
15.24,170.825,11.386,100.057,-0.0022004
15.46,173.026,11.385,100.052,-0.0027498
15.68,175.226,11.384,100.046,-0.0029784
15.9,177.426,11.384,100.041,-0.0023367
16.13,179.627,11.383,100.035,-0.0025199
16.35,181.827,11.383,100.03,-0.0025653
16.57,184.028,11.382,100.025,-0.0021998
16.78,186.228,11.381,100.019,-0.0024748
17,188.428,11.381,100.014,-0.0023821
17.23,190.629,11.38,100.008,-0.0028878
17.45,192.829,11.379,100.002,-0.0030697
17.67,195.029,11.379,99.996,-0.0029789
17.89,197.23,11.378,99.99,-0.0030275
18.11,199.43,11.377,99.984,-0.0028440
18.33,201.631,11.377,99.978,-0.0031130
18.55,203.831,11.376,99.972,-0.0031107
18.77,206.031,11.375,99.965,-0.0027938
18.99,208.232,11.374,99.959,-0.0028867
19.21,210.432,11.374,99.952,-0.0033468
19.43,212.633,11.373,99.946,-0.0027963
19.65,214.833,11.372,99.939,-0.0032512
19.87,217.033,11.371,99.932,-0.0030678
20.09,219.234,11.371,99.926,-0.0026108
20.31,221.434,11.37,99.919,-0.0029304
20.53,223.635,11.369,99.912,-0.0027956
20.75,225.835,11.368,99.906,-0.0029798
20.97,228.035,11.368,99.899,-0.0032545
21.19,230.236,11.367,99.891,-0.0027505
21.41,232.436,11.366,99.885,-0.0034331
21.63,234.637,11.365,99.878,-0.0028846
21.85,236.837,11.364,99.871,-0.0034366
22.07,239.037,11.364,99.864,-0.0031130
22.29,241.238,11.363,99.857,-0.0034862
22.51,243.438,11.362,99.85,-0.0032577
22.73,245.639,11.361,99.844,-0.0031631
22.95,247.839,11.36,99.836,-0.0034334
23.17,250.039,11.36,99.829,-0.0035272
23.39,252.24,11.359,99.822,-0.0034382
23.61,254.44,11.358,99.815,-0.0035283
23.83,256.64,11.357,99.807,-0.0035237
24.05,258.841,11.356,99.8,-0.0032033
24.27,261.041,11.356,99.793,-0.0031610
24.49,263.242,11.355,99.786,-0.0032539
24.72,265.442,11.354,99.778,-0.0032069
24.93,267.642,11.353,99.77,-0.0032051
25.16,269.843,11.352,99.763,-0.0037067
25.38,272.043,11.351,99.755,-0.0032522
25.59,274.244,11.35,99.747,-0.0030237
25.82,276.444,11.349,99.74,-0.0032080
26.03,278.644,11.349,99.731,-0.0033901
26.26,280.845,11.348,99.723,-0.0034799
26.48,283.045,11.347,99.715,-0.0034830
26.69,285.246,11.346,99.706,-0.0040345
26.92,287.446,11.345,99.698,-0.0038017
27.14,289.646,11.344,99.689,-0.0043017
27.36,291.847,11.343,99.681,-0.0035695
27.58,294.047,11.342,99.672,-0.0040788
27.8,296.248,11.341,99.663,-0.0040781
28.02,298.448,11.34,99.654,-0.0039356
28.24,300.648,11.339,99.645,-0.0040277
28.46,302.849,11.338,99.636,-0.0043956
28.68,305.049,11.337,99.626,-0.0041269
28.9,307.25,11.335,99.617,-0.0044905
29.12,309.45,11.334,99.607,-0.0045762
29.34,311.65,11.333,99.597,-0.0047161
29.56,313.851,11.332,99.587,-0.0048535
29.78,316.051,11.331,99.576,-0.0049908
30,318.251,11.33,99.566,-0.0048993
30.22,320.452,11.328,99.555,-0.0048561
30.44,322.652,11.327,99.544,-0.0051758
30.66,324.853,11.326,99.533,-0.0055424
30.88,327.053,11.325,99.521,-0.0056777
31.1,329.253,11.323,99.509,-0.0061322
31.32,331.454,11.322,99.497,-0.0061321
31.54,333.654,11.32,99.484,-0.0065054
31.76,335.855,11.319,99.47,-0.0064138
31.98,338.055,11.317,99.456,-0.0066874
32.2,340.255,11.315,99.441,-0.0065476
32.42,342.456,11.314,99.425,-0.0070016
32.64,344.656,11.312,99.409,-0.0074216
32.86,346.857,11.31,99.393,-0.0080128
33.08,349.057,11.308,99.375,-0.0080128
33.3,351.257,11.306,99.357,-0.0086002
33.52,353.458,11.304,99.339,-0.0089254
33.74,355.658,11.302,99.319,-0.0090201
33.96,357.859,11.299,99.299,-0.0092863
34.18,360.059,11.297,99.278,-0.0097564
34.4,362.259,11.295,99.257,-0.0098864
34.62,364.46,11.292,99.235,-0.0104300
34.84,366.66,11.29,99.213,-0.0099872
35.06,368.861,11.287,99.19,-0.0099450
35.28,371.061,11.284,99.168,-0.0104911
35.5,373.261,11.282,99.145,-0.0104625
35.72,375.462,11.279,99.122,-0.0106285
35.94,377.662,11.276,99.098,-0.0111355
36.16,379.862,11.274,99.075,-0.0109489
36.38,382.063,11.271,99.051,-0.0107442
36.6,384.263,11.268,99.027,-0.0106168
36.82,386.464,11.266,99.003,-0.0110908
37.04,388.664,11.263,98.979,-0.0113553
37.26,390.864,11.26,98.955,-0.0106725
37.48,393.065,11.257,98.931,-0.0107601
37.7,395.265,11.255,98.906,-0.0107084
37.92,397.466,11.252,98.881,-0.0119462
38.14,399.666,11.249,98.855,-0.0114469
38.36,401.866,11.246,98.829,-0.0116258
38.58,404.067,11.243,98.803,-0.0119048
38.8,406.267,11.24,98.776,-0.0125458
39.02,408.468,11.237,98.748,-0.0127220
39.24,410.668,11.233,98.719,-0.0130808
39.46,412.868,11.23,98.689,-0.0141863
39.68,415.069,11.226,98.657,-0.0149725
39.9,417.269,11.222,98.624,-0.0158337
40.12,419.47,11.218,98.587,-0.0177428
40.34,421.67,11.214,98.547,-0.0192872
40.56,423.87,11.209,98.502,-0.0215358
40.78,426.071,11.203,98.452,-0.0249176
41,428.271,11.196,98.394,-0.0274931
41.22,430.472,11.189,98.329,-0.0313701
41.44,432.672,11.181,98.256,-0.0356227
41.66,434.872,11.171,98.171,-0.0423535
41.88,437.073,11.159,98.066,-0.0533589
42.1,439.273,11.144,97.935,-0.0661697
42.32,441.473,11.125,97.767,-0.0918574
42.54,443.674,11.09,97.457,-0.1877540
42.76,445.874,11.035,96.972,-0.2472510
42.98,448.075,10.967,96.379,-0.3038920
43.2,450.275,10.864,95.474,-0.5435090
43.42,452.475,10.688,93.923,-0.8278970
43.64,454.676,10.459,91.914,-1.02386
43.86,456.876,10.186,89.519,-1.16896
44.08,459.077,9.823,86.321,-1.7115
44.3,461.277,9.342,82.096,-2.09963
44.52,463.477,8.758,76.963,-2.66844
44.74,465.678,8.042,70.675,-3.16248
44.96,467.878,7.206,63.326,-3.57763
45.18,470.079,6.246,54.89,-3.96651
45.4,472.279,5.208,45.77,-4.24806
45.62,474.479,4.121,36.217,-4.27543
45.84,476.68,3.061,26.9,-4.10805
46.06,478.88,2.084,18.318,-3.56613
46.28,481.081,1.285,11.289,-2.81761
46.5,483.281,0.7030000,6.175,-1.83329
46.71,485.481,0.3640000,3.202,-0.8871360
46.93,487.682,0.2140000,1.881,-0.3190060
47.15,489.882,0.1670000,1.468,-0.0736209
47.38,492.083,0.1530000,1.346,-0.0448598
47.6,494.283,0.1460000,1.279,-0.0188979
47.82,496.483,0.1430000,1.253,-0.0072163
48.04,498.684,0.1420000,1.244,-0.0028399
48.26,500.884,0.1410000,1.24,-0.0012808
48.48,503.084,0.1410000,1.238,-0.0003818
48.7,505.285,0.1410000,1.238,-0.0003794
48.92,507.485,0.1410000,1.237,-0.0001494
49.14,509.686,0.1410000,1.237,-0.0002422
49.36,511.886,0.1410000,1.236,-0.0004563
49.58,514.086,0.1410000,1.236,-0.0002092
49.8,516.287,0.1410000,1.236,-0.0001980
50.02,518.487,0.1410000,1.236,-0.0001163
50.24,520.688,0.1410000,1.235,-0.0005141
50.46,522.888,0.1400000,1.235,-0.0001650
50.68,525.088,0.1400000,1.234,-0.0006827
50.9,527.289,0.1400000,1.233,-0.0005221
51.12,529.489,0.1400000,1.232,-0.0004028
51.34,531.69,0.1400000,1.231,-0.0004738
51.56,533.89,0.1400000,1.23,-0.0009090
51.78,536.09,0.1400000,1.229,-0.0006525
52,538.291,0.1400000,1.228,-0.0007741
52.22,540.491,0.1400000,1.227,-0.0002716
52.44,542.692,0.1400000,1.226,-0.0002039
52.66,544.892,0.1390000,1.225,-0.0003258
52.88,547.092,0.1390000,1.224,-0.0004334
53.1,549.293,0.1390000,1.223,-0.0004042
53.32,551.493,0.1390000,1.222,-0.0004348
53.54,553.694,0.1390000,1.221,-0.0003771
53.76,555.894,0.1390000,1.22,-0.0008149
53.98,558.094,0.1390000,1.219,-0.0005391
54.2,560.295,0.1390000,1.218,-0.0002079
54.42,562.495,0.1380000,1.217,-0.0004242
54.64,564.695,0.1380000,1.216,-0.0001552
54.86,566.896,0.1380000,1.215,-0.0005683
55.08,569.096,0.1380000,1.214,-0.0002955
55.3,571.297,0.1380000,1.212,-0.0007898
55.52,573.497,0.1380000,1.211,-0.0008448
55.74,575.697,0.1380000,1.21,-0.0010598
55.96,577.898,0.1370000,1.208,-0.0007462
56.18,580.098,0.1370000,1.206,-0.0010904
56.4,582.299,0.1370000,1.203,-0.0014293
56.62,584.499,0.1370000,1.2,-0.0015622
56.84,586.699,0.1360000,1.197,-0.0018660
57.06,588.9,0.1360000,1.193,-0.0022427
57.16,590,0.1360000,1.191,-0.0018709