File: R/rHDPE_App/app/www/Output/TGA/Condensed_Data/Resin12_0_.csv
0.9100000,30,16.176,100.031,0.0036951
1.18,32.3004,16.177,100.038,0.0009979
1.44,34.6008,16.178,100.042,0.0014133
1.69,36.9012,16.178,100.045,0.0017271
1.93,39.2016,16.179,100.047,0.0001946
2.18,41.5021,16.179,100.05,-0.0001448
2.42,43.8025,16.179,100.052,0.0015841
2.66,46.1029,16.18,100.055,0.0013340
2.9,48.4033,16.18,100.057,0.0019406
3.14,50.7037,16.181,100.06,0.0012708
3.37,53.0041,16.181,100.062,0.0014989
3.61,55.3045,16.182,100.065,0.0008399
3.84,57.6049,16.182,100.068,0.0015341
4.08,59.9053,16.182,100.07,0.0010653
4.31,62.2058,16.183,100.072,-0.0002773
4.54,64.5062,16.183,100.074,0.0005073
4.77,66.8066,16.183,100.076,0.0009672
5,69.107,16.184,100.078,0.0006897
5.23,71.4074,16.184,100.08,0.0003671
5.46,73.7078,16.184,100.082,0.0008712
5.69,76.0082,16.185,100.084,0.0004126
5.92,78.3086,16.185,100.085,0.0006868
6.15,80.609,16.185,100.087,0.0010081
6.38,82.9094,16.185,100.088,0.0004116
6.61,85.2099,16.185,100.089,0.0009610
6.85,87.5103,16.186,100.091,0.0007777
7.08,89.8107,16.186,100.092,0.0008693
7.3,92.1111,16.186,100.093,0.0005943
7.53,94.4115,16.186,100.094,0.0005949
7.76,96.7119,16.186,100.095,0.0001828
7.99,99.0123,16.186,100.095,0.0000915
8.22,101.313,16.187,100.096,0.0005953
8.45,103.613,16.187,100.097,0.0002748
8.68,105.914,16.187,100.097,0.0001373
8.91,108.214,16.187,100.098,-0.0004120
9.14,110.514,16.187,100.098,0.0000000
9.37,112.815,16.187,100.098,-0.0000458
9.6,115.115,16.187,100.099,0.0002746
9.83,117.416,16.187,100.099,0.0004126
10.06,119.716,16.187,100.099,0.0000916
10.3,122.016,16.187,100.099,0.0001829
10.53,124.317,16.187,100.1,-0.0004123
10.75,126.617,16.187,100.1,0.0003668
10.98,128.918,16.187,100.1,0.0000916
11.22,131.218,16.187,100.101,0.0001375
11.45,133.518,16.188,100.102,0.0002748
11.68,135.819,16.188,100.103,0.0000000
11.91,138.119,16.188,100.103,0.0000000
12.14,140.42,16.188,100.103,-0.0001827
12.37,142.72,16.187,100.102,-0.0005938
12.6,145.021,16.187,100.099,-0.0014594
12.83,147.321,16.186,100.095,-0.0016844
13.05,149.621,16.186,100.091,-0.0014596
13.28,151.922,16.185,100.088,-0.0011940
13.52,154.222,16.185,100.086,-0.0006906
13.75,156.523,16.185,100.084,-0.0007813
13.98,158.823,16.184,100.082,-0.0008720
14.21,161.123,16.184,100.081,-0.0012357
14.44,163.424,16.184,100.079,-0.0010573
14.67,165.724,16.183,100.076,-0.0007802
14.9,168.025,16.183,100.074,-0.0008672
15.13,170.325,16.183,100.072,-0.0013799
15.36,172.625,16.182,100.069,-0.0005989
15.59,174.926,16.182,100.067,-0.0011842
15.82,177.226,16.181,100.064,-0.0011447
16.05,179.527,16.181,100.061,-0.0010120
16.28,181.827,16.18,100.058,-0.0010954
16.51,184.128,16.18,100.055,-0.0011925
16.74,186.428,16.179,100.052,-0.0017800
16.97,188.728,16.179,100.048,-0.0011418
17.2,191.029,16.178,100.045,-0.0017926
17.43,193.329,16.178,100.041,-0.0012799
17.66,195.63,16.177,100.038,-0.0019131
17.89,197.93,16.176,100.034,-0.0012389
18.12,200.23,16.176,100.03,-0.0017447
18.35,202.531,16.175,100.026,-0.0024821
18.58,204.831,16.175,100.021,-0.0019647
18.81,207.132,16.174,100.017,-0.0020676
19.04,209.432,16.173,100.013,-0.0019240
19.27,211.732,16.172,100.008,-0.0021504
19.5,214.033,16.172,100.003,-0.0017808
19.73,216.333,16.171,99.999,-0.0022181
19.96,218.634,16.17,99.994,-0.0020543
20.19,220.934,16.169,99.989,-0.0022005
20.42,223.235,16.168,99.983,-0.0021958
20.65,225.535,16.167,99.978,-0.0023394
20.88,227.835,16.167,99.973,-0.0022008
21.12,230.136,16.166,99.967,-0.0022894
21.34,232.436,16.165,99.962,-0.0026058
21.58,234.737,16.164,99.956,-0.0024725
21.81,237.037,16.163,99.95,-0.0022900
22.03,239.337,16.162,99.944,-0.0027948
22.27,241.638,16.161,99.938,-0.0026405
22.49,243.938,16.16,99.932,-0.0026183
22.73,246.239,16.159,99.926,-0.0030734
22.96,248.539,16.158,99.92,-0.0028873
23.19,250.839,16.157,99.913,-0.0026187
23.42,253.14,16.156,99.906,-0.0028793
23.65,255.44,16.155,99.9,-0.0029754
23.88,257.741,16.154,99.893,-0.0028879
24.11,260.041,16.153,99.886,-0.0030236
24.34,262.341,16.151,99.879,-0.0030705
24.57,264.642,16.15,99.872,-0.0030164
24.8,266.942,16.149,99.864,-0.0031651
25.03,269.243,16.148,99.857,-0.0032051
25.26,271.543,16.147,99.849,-0.0035695
25.49,273.844,16.145,99.841,-0.0038518
25.72,276.144,16.144,99.834,-0.0036155
25.95,278.444,16.143,99.825,-0.0038970
26.18,280.745,16.141,99.817,-0.0041628
26.41,283.045,16.14,99.809,-0.0037899
26.64,285.346,16.139,99.801,-0.0040404
26.87,287.646,16.137,99.792,-0.0038532
27.1,289.946,16.136,99.783,-0.0038483
27.33,292.247,16.134,99.774,-0.0038863
27.56,294.547,16.133,99.765,-0.0040241
27.79,296.848,16.131,99.755,-0.0041683
28.02,299.148,16.13,99.746,-0.0041187
28.25,301.448,16.128,99.736,-0.0043545
28.48,303.749,16.127,99.726,-0.0047161
28.71,306.049,16.125,99.716,-0.0041613
28.94,308.35,16.124,99.706,-0.0045704
29.17,310.65,16.122,99.696,-0.0048642
29.4,312.951,16.12,99.685,-0.0045354
29.63,315.251,16.118,99.674,-0.0045304
29.86,317.551,16.117,99.663,-0.0048535
30.09,319.852,16.115,99.652,-0.0049038
30.32,322.152,16.113,99.641,-0.0046729
30.55,324.453,16.111,99.629,-0.0045247
30.78,326.753,16.109,99.618,-0.0052198
31.01,329.053,16.107,99.606,-0.0055086
31.24,331.354,16.105,99.594,-0.0050935
31.47,333.654,16.103,99.581,-0.0056319
31.7,335.955,16.101,99.569,-0.0051301
31.93,338.255,16.099,99.556,-0.0059982
32.16,340.555,16.097,99.543,-0.0058181
32.39,342.856,16.095,99.53,-0.0054059
32.62,345.156,16.093,99.516,-0.0060864
32.85,347.457,16.091,99.502,-0.0059274
33.08,349.757,16.088,99.489,-0.0062123
33.31,352.058,16.086,99.474,-0.0064162
33.54,354.358,16.084,99.46,-0.0064501
33.77,356.658,16.081,99.445,-0.0064256
34,358.959,16.079,99.429,-0.0068311
34.23,361.259,16.076,99.413,-0.0070971
34.46,363.56,16.073,99.397,-0.0071138
34.69,365.86,16.071,99.38,-0.0074415
34.92,368.16,16.068,99.362,-0.0080896
35.15,370.461,16.065,99.343,-0.0081502
35.38,372.761,16.062,99.324,-0.0087912
35.61,375.062,16.058,99.303,-0.0090993
35.84,377.362,16.055,99.281,-0.0099579
36.07,379.662,16.051,99.258,-0.0104358
36.3,381.963,16.047,99.233,-0.0113761
36.53,384.263,16.043,99.206,-0.0119048
36.76,386.564,16.038,99.177,-0.0131989
36.99,388.864,16.033,99.145,-0.0150769
37.22,391.164,16.027,99.111,-0.0151876
37.45,393.465,16.021,99.073,-0.0166972
37.68,395.765,16.015,99.032,-0.0188084
37.91,398.066,16.007,98.988,-0.0202654
38.14,400.366,16,98.939,-0.0216636
38.37,402.667,15.991,98.885,-0.0250550
38.6,404.967,15.981,98.826,-0.0277013
38.83,407.267,15.97,98.759,-0.0307805
39.06,409.568,15.958,98.685,-0.0336380
39.29,411.868,15.945,98.603,-0.0375916
39.52,414.169,15.93,98.511,-0.0429317
39.75,416.469,15.913,98.406,-0.0485553
39.98,418.769,15.894,98.287,-0.0558447
40.21,421.07,15.872,98.148,-0.0643302
40.44,423.37,15.843,97.97,-0.0911585
40.67,425.671,15.805,97.738,-0.1115900
40.9,427.971,15.76,97.457,-0.1338390
41.13,430.271,15.706,97.124,-0.1662700
41.36,432.572,15.642,96.729,-0.1824180
41.59,434.872,15.565,96.253,-0.2368170
41.82,437.173,15.472,95.678,-0.2783920
42.05,439.473,15.36,94.987,-0.3547380
42.28,441.774,15.233,94.201,-0.3906590
42.51,444.074,15.082,93.264,-0.4433940
42.74,446.374,14.898,92.125,-0.5667030
42.97,448.675,14.668,90.703,-0.6822870
43.2,450.975,14.384,88.952,-0.9182040
43.43,453.276,14.041,86.827,-1.07898
43.66,455.576,13.616,84.199,-1.25206
43.89,457.876,13.099,81.001,-1.49955
44.13,460.177,12.482,77.189,-1.70179
44.36,462.477,11.744,72.624,-2.1055
44.59,464.778,10.881,67.288,-2.54044
44.81,467.078,9.879,61.093,-2.82039
45.04,469.378,8.735,54.014,-3.21643
45.28,471.679,7.463,46.148,-3.54707
45.51,473.979,6.098,37.706,-3.74013
45.74,476.28,4.679,28.932,-3.82201
45.96,478.58,3.284,20.307,-3.62634
46.19,480.881,2.022,12.502,-3.10214
46.42,483.181,1.015,6.274,-2.2812
46.65,485.481,0.3750000,2.316,-1.15931
46.88,487.782,0.1170000,0.7230000,-0.3040770
47.11,490.082,0.0700000,0.4340000,-0.0311584
47.34,492.383,0.0600000,0.3720000,-0.0176842
47.57,494.683,0.0560000,0.3470000,-0.0057039
47.8,496.983,0.0550000,0.3390000,-0.0020993
48.03,499.284,0.0540000,0.3360000,-0.0004468
48.26,501.584,0.0540000,0.3350000,-0.0002609
48.49,503.885,0.0540000,0.3350000,-0.0001186
48.72,506.185,0.0540000,0.3350000,0.0002715
48.95,508.485,0.0540000,0.3350000,-0.0002648
49.18,510.786,0.0540000,0.3350000,0.0004204
49.41,513.086,0.0540000,0.3350000,-0.0000291
49.64,515.387,0.0540000,0.3350000,-0.0000622
49.87,517.687,0.0540000,0.3360000,-0.0000041
50.1,519.987,0.0540000,0.3360000,-0.0003189
50.33,522.288,0.0540000,0.3360000,0.0001637
50.56,524.588,0.0540000,0.3350000,-0.0002246
50.79,526.889,0.0540000,0.3350000,-0.0000455
51.02,529.189,0.0540000,0.3350000,-0.0003165
51.25,531.49,0.0540000,0.3340000,-0.0001885
51.48,533.79,0.0540000,0.3340000,-0.0004332
51.71,536.09,0.0540000,0.3340000,-0.0001273
51.94,538.391,0.0540000,0.3330000,0.0000498
52.17,540.691,0.0540000,0.3330000,0.0000515
52.4,542.992,0.0540000,0.3330000,-0.0002366
52.63,545.292,0.0540000,0.3330000,0.0000917
52.86,547.592,0.0540000,0.3330000,-0.0001556
53.09,549.893,0.0540000,0.3330000,-0.0000118
53.32,552.193,0.0540000,0.3330000,-0.0000342
53.55,554.494,0.0540000,0.3330000,0.0001141
53.78,556.794,0.0540000,0.3320000,-0.0002947
54.01,559.094,0.0540000,0.3320000,0.0001637
54.24,561.395,0.0540000,0.3320000,-0.0003379
54.47,563.695,0.0540000,0.3310000,-0.0000609
54.7,565.996,0.0540000,0.3310000,-0.0001696
54.93,568.296,0.0530000,0.3310000,-0.0001057
55.16,570.597,0.0530000,0.3300000,-0.0002168
55.39,572.897,0.0530000,0.3300000,-0.0001728
55.62,575.197,0.0530000,0.3300000,-0.0003201
55.85,577.498,0.0530000,0.3290000,-0.0000194
56.08,579.798,0.0530000,0.3290000,-0.0003153
56.31,582.099,0.0530000,0.3280000,-0.0003259
56.54,584.399,0.0530000,0.3280000,-0.0003030
56.77,586.699,0.0530000,0.3280000,0.0000725
57,589,0.0530000,0.3280000,0.0000313
57.1,590,0.0530000,0.3280000,0.0005583