File: R/rHDPE_App/app/www/Output/TGA/Condensed_Data/Resin22_1_.csv
0.8300000,30,13.71,100.032,0.0008419
1.11,32.2004,13.711,100.04,-0.0000539
1.36,34.4008,13.712,100.045,0.0040470
1.6,36.6012,13.712,100.048,0.0019897
1.84,38.8016,13.713,100.051,0.0033293
2.07,41.002,13.713,100.054,0.0022805
2.31,43.2024,13.713,100.057,0.0018774
2.54,45.4028,13.714,100.06,0.0003827
2.77,47.6031,13.714,100.063,0.0013791
2.99,49.8035,13.715,100.067,0.0005206
3.22,52.0039,13.715,100.07,0.0019776
3.45,54.2043,13.716,100.073,0.0013124
3.67,56.4047,13.716,100.076,0.0008408
3.89,58.6051,13.716,100.078,0.0007912
4.12,60.8055,13.717,100.081,0.0010673
4.34,63.0059,13.717,100.084,0.0012954
4.56,65.2063,13.717,100.086,0.0010615
4.79,67.4067,13.718,100.088,0.0008287
5.01,69.6071,13.718,100.09,0.0008744
5.23,71.8075,13.718,100.092,0.0006894
5.45,74.0079,13.719,100.094,0.0010087
5.67,76.2083,13.719,100.096,0.0007332
5.89,78.4086,13.719,100.098,0.0010534
6.11,80.609,13.719,100.099,0.0005495
6.33,82.8094,13.719,100.1,0.0004578
6.55,85.0098,13.72,100.102,0.0006867
6.77,87.2102,13.72,100.103,0.0007323
6.99,89.4106,13.72,100.104,-0.0000000
7.21,91.611,13.72,100.104,0.0005036
7.43,93.8114,13.72,100.105,0.0002287
7.65,96.0118,13.72,100.106,0.0002289
7.87,98.2122,13.72,100.106,0.0002747
8.09,100.413,13.72,100.107,0.0001832
8.31,102.613,13.72,100.107,0.0002287
8.53,104.813,13.72,100.107,0.0005488
8.75,107.014,13.72,100.107,0.0000458
8.97,109.214,13.72,100.107,-0.0000916
9.19,111.415,13.72,100.107,-0.0008235
9.41,113.615,13.72,100.106,0.0000000
9.63,115.815,13.72,100.106,-0.0004583
9.85,118.016,13.72,100.106,0.0002294
10.07,120.216,13.72,100.105,-0.0002292
10.29,122.417,13.72,100.105,0.0000917
10.51,124.617,13.72,100.104,0.0001379
10.73,126.817,13.72,100.104,0.0005950
10.95,129.018,13.72,100.104,-0.0004576
11.17,131.218,13.72,100.104,-0.0000457
11.39,133.418,13.72,100.103,-0.0008227
11.61,135.619,13.719,100.101,-0.0014602
11.83,137.819,13.719,100.097,-0.0018662
12.05,140.02,13.718,100.092,-0.0020454
12.27,142.22,13.718,100.087,-0.0023272
12.49,144.42,13.717,100.083,-0.0016064
12.71,146.621,13.716,100.079,-0.0012412
12.93,148.821,13.716,100.076,-0.0015159
13.15,151.022,13.716,100.073,-0.0011021
13.37,153.222,13.715,100.069,-0.0010096
13.59,155.422,13.715,100.066,-0.0013315
13.81,157.623,13.714,100.063,-0.0015138
14.03,159.823,13.714,100.06,-0.0010544
14.25,162.024,13.713,100.056,-0.0013741
14.47,164.224,13.713,100.052,-0.0022904
14.69,166.424,13.712,100.048,-0.0014214
14.91,168.625,13.712,100.044,-0.0015130
15.13,170.825,13.711,100.04,-0.0023380
15.35,173.026,13.71,100.035,-0.0016965
15.58,175.226,13.71,100.031,-0.0023826
15.8,177.426,13.709,100.026,-0.0022453
16.02,179.627,13.708,100.021,-0.0028414
16.23,181.827,13.708,100.016,-0.0019698
16.45,184.028,13.707,100.011,-0.0025183
16.68,186.228,13.706,100.005,-0.0023360
16.9,188.428,13.706,100,-0.0027034
17.12,190.629,13.705,99.994,-0.0020610
17.34,192.829,13.704,99.989,-0.0029331
17.56,195.029,13.703,99.983,-0.0035737
17.78,197.23,13.702,99.977,-0.0027035
18,199.43,13.702,99.971,-0.0026116
18.22,201.631,13.701,99.965,-0.0029773
18.44,203.831,13.7,99.958,-0.0032072
18.66,206.031,13.699,99.952,-0.0027943
18.88,208.232,13.698,99.946,-0.0031625
19.1,210.432,13.697,99.94,-0.0033477
19.32,212.633,13.696,99.933,-0.0030678
19.54,214.833,13.696,99.926,-0.0027460
19.76,217.033,13.695,99.919,-0.0033899
19.98,219.234,13.694,99.913,-0.0035275
20.2,221.434,13.693,99.906,-0.0025660
20.42,223.635,13.692,99.899,-0.0027032
20.64,225.835,13.691,99.892,-0.0027020
20.86,228.035,13.69,99.885,-0.0029775
21.08,230.236,13.689,99.878,-0.0031144
21.3,232.436,13.688,99.871,-0.0032049
21.52,234.637,13.687,99.864,-0.0030692
21.74,236.837,13.686,99.856,-0.0029295
21.96,239.037,13.685,99.849,-0.0031144
22.18,241.238,13.684,99.842,-0.0032554
22.4,243.438,13.683,99.834,-0.0027493
22.62,245.639,13.682,99.827,-0.0034789
22.84,247.839,13.681,99.819,-0.0033434
23.06,250.039,13.68,99.811,-0.0036636
23.28,252.24,13.679,99.803,-0.0039843
23.5,254.44,13.678,99.795,-0.0035806
23.72,256.64,13.676,99.787,-0.0038497
23.94,258.841,13.675,99.779,-0.0036179
24.16,261.041,13.674,99.771,-0.0034785
24.38,263.242,13.673,99.762,-0.0038511
24.61,265.442,13.672,99.753,-0.0039400
24.83,267.642,13.671,99.744,-0.0042582
25.04,269.843,13.669,99.736,-0.0035714
25.27,272.043,13.668,99.727,-0.0044414
25.48,274.244,13.667,99.718,-0.0038462
25.71,276.444,13.666,99.708,-0.0044438
25.93,278.644,13.664,99.699,-0.0044438
26.14,280.845,13.663,99.69,-0.0043498
26.37,283.045,13.662,99.68,-0.0038955
26.58,285.246,13.66,99.671,-0.0042606
26.81,287.446,13.659,99.661,-0.0045347
27.03,289.646,13.658,99.652,-0.0046296
27.25,291.847,13.657,99.642,-0.0042163
27.47,294.047,13.655,99.632,-0.0043981
27.69,296.248,13.654,99.623,-0.0044872
27.91,298.448,13.653,99.613,-0.0045305
28.13,300.648,13.651,99.603,-0.0048966
28.35,302.849,13.65,99.592,-0.0053571
28.57,305.049,13.648,99.582,-0.0047655
28.79,307.25,13.647,99.571,-0.0049451
29.01,309.45,13.645,99.561,-0.0051282
29.23,311.65,13.644,99.55,-0.0047178
29.45,313.851,13.642,99.539,-0.0051693
29.67,316.051,13.641,99.528,-0.0053960
29.89,318.251,13.639,99.516,-0.0050339
30.11,320.452,13.638,99.505,-0.0049937
30.33,322.652,13.636,99.494,-0.0054557
30.55,324.853,13.635,99.483,-0.0048993
30.77,327.053,13.633,99.471,-0.0050824
30.99,329.253,13.632,99.46,-0.0053131
31.21,331.454,13.63,99.448,-0.0059087
31.43,333.654,13.628,99.436,-0.0058628
31.65,335.855,13.627,99.424,-0.0060004
31.87,338.055,13.625,99.411,-0.0059982
32.09,340.255,13.623,99.398,-0.0055403
32.31,342.456,13.621,99.385,-0.0058183
32.53,344.656,13.62,99.372,-0.0060004
32.75,346.857,13.618,99.358,-0.0060015
32.97,349.057,13.616,99.344,-0.0060920
33.19,351.257,13.614,99.33,-0.0070984
33.41,353.458,13.612,99.316,-0.0069560
33.63,355.658,13.61,99.3,-0.0068658
33.85,357.859,13.608,99.285,-0.0073260
34.07,360.059,13.605,99.268,-0.0078297
34.29,362.259,13.603,99.252,-0.0077411
34.51,364.46,13.601,99.235,-0.0079169
34.73,366.66,13.598,99.217,-0.0083287
34.95,368.861,13.596,99.199,-0.0080083
35.17,371.061,13.593,99.18,-0.0090201
35.39,373.261,13.59,99.16,-0.0090201
35.61,375.462,13.588,99.139,-0.0095204
35.83,377.662,13.585,99.117,-0.0102870
36.05,379.862,13.581,99.094,-0.0108378
36.27,382.063,13.578,99.069,-0.0114407
36.49,384.263,13.574,99.043,-0.0121271
36.71,386.464,13.57,99.014,-0.0136979
36.93,388.664,13.566,98.982,-0.0146978
37.15,390.864,13.561,98.948,-0.0161482
37.37,393.065,13.556,98.91,-0.0183608
37.59,395.265,13.551,98.869,-0.0197453
37.81,397.466,13.544,98.824,-0.0208333
38.03,399.666,13.538,98.775,-0.0233888
38.25,401.866,13.53,98.722,-0.0250823
38.47,404.067,13.522,98.664,-0.0272337
38.69,406.267,13.514,98.601,-0.0304197
38.91,408.468,13.504,98.53,-0.0346943
39.13,410.668,13.493,98.45,-0.0381868
39.35,412.868,13.481,98.36,-0.0449469
39.57,415.069,13.466,98.254,-0.0508877
39.79,417.269,13.45,98.133,-0.0597220
40.01,419.47,13.43,97.989,-0.0710690
40.23,421.67,13.405,97.806,-0.0978938
40.45,423.87,13.365,97.511,-0.1566170
40.67,426.071,13.319,97.181,-0.1519230
40.89,428.271,13.271,96.83,-0.1872580
41.11,430.472,13.213,96.405,-0.2079430
41.33,432.672,13.139,95.867,-0.2912160
41.55,434.872,13.043,95.168,-0.3477210
41.77,437.073,12.927,94.317,-0.4321470
41.99,439.273,12.784,93.277,-0.5321570
42.21,441.473,12.608,91.99,-0.6270600
42.43,443.674,12.403,90.499,-0.7542070
42.65,445.874,12.158,88.705,-0.7645340
42.87,448.075,11.911,86.904,-0.9539180
43.09,450.275,11.602,84.655,-1.24435
43.31,452.475,11.205,81.753,-1.47048
43.53,454.676,10.743,78.381,-1.73438
43.75,456.876,10.187,74.33,-2.07957
43.97,459.077,9.541,69.615,-2.36591
44.19,461.277,8.808,64.263,-2.36275
44.41,463.477,7.988,58.284,-2.95249
44.63,465.678,7.072,51.601,-3.22658
44.85,467.878,6.095,44.471,-3.33616
45.07,470.079,5.078,37.053,-3.47032
45.29,472.279,4.057,29.598,-3.37971
45.51,474.479,3.069,22.391,-3.16169
45.73,476.68,2.164,15.788,-2.79865
45.95,478.88,1.415,10.324,-2.12783
46.17,481.081,0.8740000,6.378,-1.44441
46.39,483.281,0.5390000,3.932,-0.7841940
46.6,485.481,0.3640000,2.653,-0.3866900
46.83,487.682,0.2900000,2.115,-0.1316440
47.05,489.882,0.2680000,1.956,-0.0501457
47.27,492.083,0.2560000,1.868,-0.0284899
47.49,494.283,0.2500000,1.824,-0.0125729
47.71,496.483,0.2470000,1.805,-0.0054418
47.93,498.684,0.2460000,1.797,-0.0023459
48.15,500.884,0.2460000,1.793,-0.0016709
48.37,503.084,0.2460000,1.791,-0.0009273
48.59,505.285,0.2450000,1.79,-0.0009962
48.81,507.485,0.2450000,1.788,-0.0005925
49.03,509.686,0.2450000,1.787,-0.0006821
49.25,511.886,0.2450000,1.786,-0.0003381
49.47,514.086,0.2450000,1.785,-0.0004160
49.69,516.287,0.2440000,1.783,-0.0004110
49.91,518.487,0.2440000,1.782,-0.0007597
50.13,520.688,0.2440000,1.781,-0.0003677
50.35,522.888,0.2440000,1.78,-0.0005342
50.57,525.088,0.2440000,1.779,-0.0003218
50.79,527.289,0.2440000,1.778,-0.0007462
51.01,529.489,0.2440000,1.777,-0.0005488
51.23,531.69,0.2430000,1.776,-0.0006685
51.45,533.89,0.2430000,1.774,-0.0004029
51.67,536.09,0.2430000,1.773,-0.0008478
51.89,538.291,0.2430000,1.771,-0.0010151
52.11,540.491,0.2430000,1.77,-0.0008551
52.33,542.692,0.2420000,1.768,-0.0007913
52.55,544.892,0.2420000,1.766,-0.0006181
52.77,547.092,0.2420000,1.764,-0.0008587
52.99,549.293,0.2420000,1.763,-0.0008506
53.21,551.493,0.2410000,1.761,-0.0005025
53.43,553.694,0.2410000,1.76,-0.0001949
53.65,555.894,0.2410000,1.758,-0.0004810
53.87,558.094,0.2410000,1.757,-0.0010151
54.09,560.295,0.2410000,1.755,-0.0007784
54.31,562.495,0.2400000,1.754,-0.0008063
54.53,564.695,0.2400000,1.752,-0.0005267
54.75,566.896,0.2400000,1.751,-0.0008586
54.97,569.096,0.2400000,1.749,-0.0008976
55.19,571.297,0.2390000,1.747,-0.0007511
55.41,573.497,0.2390000,1.746,-0.0009043
55.63,575.697,0.2390000,1.744,-0.0008133
55.85,577.898,0.2390000,1.742,-0.0007183
56.07,580.098,0.2380000,1.739,-0.0012261
56.29,582.299,0.2380000,1.736,-0.0010852
56.51,584.499,0.2380000,1.733,-0.0018960
56.73,586.699,0.2370000,1.729,-0.0020124
56.95,588.9,0.2360000,1.724,-0.0017077
57.06,590,0.2360000,1.722,-0.0020139