File: R/rHDPE_App/app/www/Output/TGA/Condensed_Data/Resin9_1__1.csv
0.6200000,30,13.853,100.012
0.8800000,31.9003,13.854,100.02
1.12,33.8007,13.855,100.026
1.33,35.701,13.856,100.032
1.55,37.6014,13.856,100.035
1.75,39.5017,13.857,100.039
1.96,41.402,13.857,100.042
2.16,43.3024,13.858,100.044
2.36,45.2027,13.858,100.046
2.55,47.1031,13.858,100.048
2.75,49.0034,13.858,100.05
2.94,50.9037,13.859,100.052
3.14,52.8041,13.859,100.054
3.34,54.7044,13.859,100.056
3.53,56.6048,13.859,100.058
3.72,58.5051,13.86,100.06
3.91,60.4054,13.86,100.062
4.11,62.3058,13.86,100.064
4.3,64.2061,13.861,100.066
4.49,66.1064,13.861,100.068
4.68,68.0068,13.861,100.07
4.87,69.9071,13.861,100.072
5.06,71.8075,13.862,100.074
5.25,73.7078,13.862,100.075
5.45,75.6081,13.862,100.077
5.64,77.5085,13.862,100.079
5.83,79.4088,13.863,100.08
6.02,81.3092,13.863,100.081
6.21,83.2095,13.863,100.083
6.4,85.1098,13.863,100.084
6.59,87.0102,13.863,100.085
6.78,88.9105,13.863,100.086
6.97,90.8109,13.864,100.088
7.16,92.7112,13.864,100.089
7.35,94.6115,13.864,100.09
7.54,96.5119,13.864,100.091
7.73,98.4122,13.864,100.091
7.92,100.313,13.864,100.092
8.11,102.213,13.864,100.093
8.3,104.113,13.865,100.094
8.49,106.014,13.865,100.094
8.68,107.914,13.865,100.095
8.87,109.814,13.865,100.095
9.06,111.715,13.865,100.095
9.25,113.615,13.865,100.096
9.44,115.515,13.865,100.095
9.63,117.416,13.865,100.095
9.82,119.316,13.865,100.095
10.01,121.216,13.865,100.095
10.2,123.117,13.865,100.095
10.39,125.017,13.865,100.095
10.58,126.917,13.865,100.096
10.77,128.818,13.865,100.095
10.96,130.718,13.865,100.095
11.15,132.618,13.865,100.095
11.34,134.519,13.865,100.094
11.53,136.419,13.865,100.094
11.72,138.319,13.865,100.094
11.91,140.22,13.865,100.095
12.1,142.12,13.865,100.095
12.29,144.02,13.865,100.095
12.48,145.921,13.865,100.095
12.67,147.821,13.865,100.096
12.87,149.721,13.865,100.095
13.05,151.622,13.864,100.094
13.25,153.522,13.864,100.091
13.43,155.422,13.864,100.088
13.62,157.323,13.863,100.083
13.81,159.223,13.862,100.078
14,161.123,13.862,100.074
14.19,163.024,13.861,100.071
14.38,164.924,13.861,100.067
14.57,166.824,13.86,100.065
14.76,168.725,13.86,100.062
14.95,170.625,13.86,100.059
15.14,172.525,13.859,100.056
15.33,174.426,13.859,100.053
15.53,176.326,13.858,100.049
15.72,178.226,13.858,100.046
15.9,180.127,13.857,100.042
16.1,182.027,13.857,100.039
16.28,183.927,13.856,100.035
16.48,185.828,13.856,100.031
16.67,187.728,13.855,100.027
16.85,189.629,13.855,100.022
17.04,191.529,13.854,100.018
17.23,193.429,13.853,100.013
17.42,195.33,13.853,100.008
17.61,197.23,13.852,100.004
17.81,199.13,13.851,99.998
18,201.031,13.851,99.993
18.19,202.931,13.85,99.988
18.38,204.831,13.849,99.983
18.57,206.732,13.848,99.977
18.76,208.632,13.848,99.971
18.95,210.532,13.847,99.965
19.14,212.433,13.846,99.96
19.33,214.333,13.845,99.954
19.52,216.233,13.844,99.948
19.71,218.134,13.843,99.941
19.9,220.034,13.843,99.935
20.09,221.934,13.842,99.929
20.28,223.835,13.841,99.922
20.47,225.735,13.84,99.916
20.66,227.635,13.839,99.909
20.85,229.536,13.838,99.902
21.04,231.436,13.837,99.895
21.23,233.336,13.836,99.888
21.42,235.237,13.835,99.882
21.61,237.137,13.834,99.875
21.79,239.037,13.833,99.868
21.98,240.938,13.832,99.861
22.17,242.838,13.831,99.853
22.36,244.738,13.83,99.846
22.55,246.639,13.829,99.839
22.74,248.539,13.828,99.832
22.93,250.439,13.827,99.825
23.13,252.34,13.826,99.817
23.32,254.24,13.825,99.81
23.51,256.14,13.824,99.803
23.7,258.041,13.823,99.797
23.89,259.941,13.822,99.79
24.08,261.841,13.821,99.783
24.27,263.742,13.82,99.776
24.46,265.642,13.819,99.768
24.65,267.542,13.818,99.761
24.84,269.443,13.817,99.754
25.03,271.343,13.816,99.746
25.22,273.243,13.815,99.739
25.41,275.144,13.814,99.732
25.61,277.044,13.813,99.724
25.79,278.944,13.812,99.717
25.98,280.845,13.811,99.709
26.18,282.745,13.81,99.702
26.37,284.645,13.809,99.695
26.56,286.546,13.808,99.687
26.74,288.446,13.807,99.679
26.93,290.346,13.806,99.672
27.13,292.247,13.805,99.664
27.32,294.147,13.804,99.659
27.51,296.048,13.803,99.652
27.69,297.948,13.802,99.644
27.88,299.848,13.801,99.636
28.07,301.749,13.8,99.628
28.27,303.649,13.799,99.62
28.46,305.549,13.798,99.612
28.65,307.45,13.797,99.604
28.83,309.35,13.795,99.596
29.03,311.25,13.794,99.588
29.22,313.151,13.793,99.579
29.41,315.051,13.792,99.571
29.59,316.951,13.791,99.563
29.78,318.852,13.79,99.554
29.98,320.752,13.789,99.546
30.17,322.652,13.787,99.538
30.36,324.553,13.786,99.529
30.55,326.453,13.785,99.521
30.74,328.353,13.784,99.512
30.93,330.254,13.783,99.504
31.12,332.154,13.782,99.495
31.31,334.054,13.78,99.487
31.5,335.955,13.779,99.48
31.69,337.855,13.778,99.472
31.88,339.755,13.777,99.463
32.07,341.656,13.776,99.455
32.26,343.556,13.775,99.446
32.44,345.456,13.774,99.437
32.64,347.357,13.772,99.428
32.83,349.257,13.771,99.42
33.02,351.157,13.77,99.411
33.21,353.058,13.769,99.402
33.4,354.958,13.767,99.393
33.59,356.858,13.766,99.385
33.78,358.759,13.765,99.376
33.97,360.659,13.764,99.367
34.16,362.559,13.763,99.358
34.35,364.46,13.761,99.349
34.54,366.36,13.76,99.34
34.73,368.26,13.759,99.331
34.92,370.161,13.758,99.322
35.11,372.061,13.756,99.312
35.3,373.961,13.755,99.303
35.49,375.862,13.754,99.293
35.68,377.762,13.752,99.283
35.87,379.662,13.751,99.274
36.06,381.563,13.749,99.263
36.25,383.463,13.748,99.254
36.44,385.363,13.747,99.244
36.63,387.264,13.745,99.234
36.82,389.164,13.744,99.223
37.01,391.064,13.742,99.212
37.2,392.965,13.741,99.2
37.4,394.865,13.739,99.188
37.59,396.765,13.737,99.176
37.71,398.666,13.736,99.167
37.91,400.566,13.734,99.153
38.12,402.467,13.732,99.138
38.32,404.367,13.73,99.123
38.51,406.267,13.728,99.108
38.71,408.168,13.726,99.092
38.91,410.068,13.723,99.074
39.1,411.968,13.721,99.056
39.29,413.869,13.718,99.036
39.48,415.769,13.715,99.015
39.67,417.669,13.712,98.993
39.86,419.57,13.709,98.968
40.05,421.47,13.705,98.941
40.24,423.37,13.701,98.912
40.44,425.271,13.696,98.88
40.62,427.171,13.692,98.847
40.81,429.071,13.687,98.811
41,430.972,13.681,98.772
41.19,432.872,13.676,98.731
41.38,434.772,13.669,98.685
41.57,436.673,13.662,98.635
41.76,438.573,13.655,98.581
41.95,440.473,13.647,98.522
42.14,442.374,13.638,98.457
42.33,444.274,13.628,98.386
42.52,446.174,13.617,98.307
42.71,448.075,13.605,98.219
42.9,449.975,13.591,98.122
43.09,451.875,13.576,98.012
43.27,453.776,13.56,97.892
43.46,455.676,13.54,97.752
43.67,457.576,13.514,97.566
43.85,459.477,13.487,97.368
44.04,461.377,13.452,97.12
44.23,463.277,13.414,96.842
44.42,465.178,13.372,96.535
44.6,467.078,13.325,96.199
44.79,468.978,13.274,95.831
44.98,470.879,13.219,95.434
45.17,472.779,13.155,94.975
45.36,474.679,13.079,94.42
45.56,476.58,12.985,93.747
45.74,478.48,12.886,93.031
45.93,480.38,12.767,92.174
46.13,482.281,12.618,91.095
46.31,484.181,12.46,89.952
46.49,486.081,12.277,88.635
46.68,487.982,12.062,87.078
46.87,489.882,11.815,85.298
47.06,491.782,11.525,83.202
47.26,493.683,11.198,80.847
47.45,495.583,10.816,78.082
47.64,497.483,10.396,75.054
47.83,499.384,9.886,71.372
48.02,501.284,9.339,67.424
48.21,503.184,8.734,63.053
48.41,505.085,8.054,58.144
48.6,506.985,7.33,52.92
48.8,508.886,6.508,46.983
48.99,510.786,5.654,40.821
49.16,512.686,4.855,35.049
49.35,514.587,3.971,28.671
49.54,516.487,3.112,22.468
49.73,518.387,2.309,16.67
49.92,520.288,1.587,11.458
50.11,522.188,1.028,7.419
50.3,524.088,0.6340000,4.574
50.49,525.989,0.4070000,2.941
50.68,527.889,0.3120000,2.249
50.87,529.789,0.2860000,2.068
51.06,531.69,0.2770000,2
51.25,533.59,0.2720000,1.963
51.45,535.49,0.2700000,1.948
51.64,537.391,0.2690000,1.942
51.83,539.291,0.2690000,1.939
52.02,541.191,0.2680000,1.938
52.21,543.092,0.2680000,1.937
52.39,544.992,0.2680000,1.937
52.59,546.892,0.2680000,1.937
52.78,548.793,0.2680000,1.936
52.97,550.693,0.2680000,1.935
53.16,552.593,0.2680000,1.935
53.35,554.494,0.2680000,1.935
53.54,556.394,0.2680000,1.934
53.73,558.294,0.2680000,1.934
53.91,560.195,0.2680000,1.933
54.11,562.095,0.2680000,1.932
54.3,563.995,0.2680000,1.932
54.49,565.896,0.2680000,1.931
54.68,567.796,0.2670000,1.931
54.87,569.696,0.2670000,1.93
55.06,571.597,0.2670000,1.93
55.25,573.497,0.2670000,1.929
55.44,575.397,0.2670000,1.928
55.63,577.298,0.2670000,1.927
55.82,579.198,0.2670000,1.926
56.01,581.098,0.2670000,1.925
56.19,582.999,0.2670000,1.924
56.37,584.899,0.2660000,1.923
56.56,586.799,0.2660000,1.922
56.75,588.7,0.2660000,1.921
56.88,590,0.2660000,1.92