File: R/rHDPE_App/app/www/Output/TGA/Condensed_Data/Resin18_1_.csv
0.6500000,30,9.749,100.033,0.0132524
0.9500000,32.2004,9.751,100.049,0.0082517
1.21,34.4008,9.752,100.058,0.0036816
1.46,36.6012,9.752,100.065,-0.0001014
1.69,38.8016,9.753,100.069,0.0043408
1.93,41.002,9.753,100.074,0.0027277
2.16,43.2024,9.754,100.078,0.0016405
2.39,45.4028,9.754,100.082,0.0037410
2.62,47.6031,9.754,100.086,0.0020996
2.85,49.8035,9.755,100.091,0.0018505
3.08,52.0039,9.755,100.096,0.0017937
3.31,54.2043,9.756,100.1,0.0025384
3.53,56.4047,9.756,100.104,0.0014984
3.76,58.6051,9.757,100.108,0.0016787
3.98,60.8055,9.757,100.112,0.0019988
4.2,63.0059,9.757,100.116,0.0015293
4.43,65.2063,9.758,100.12,0.0013872
4.65,67.4067,9.758,100.123,0.0015681
4.87,69.6071,9.758,100.127,0.0018895
5.09,71.8075,9.759,100.13,0.0019788
5.31,74.0079,9.759,100.134,0.0016086
5.53,76.2083,9.759,100.137,0.0010553
5.75,78.4086,9.76,100.139,0.0007790
5.97,80.609,9.76,100.142,0.0012369
6.19,82.8094,9.76,100.144,0.0012828
6.41,85.0098,9.76,100.146,0.0011444
6.64,87.2102,9.76,100.148,0.0006869
6.85,89.4106,9.761,100.15,0.0003661
7.07,91.611,9.761,100.152,0.0007324
7.29,93.8114,9.761,100.153,0.0005949
7.51,96.0118,9.761,100.155,0.0006406
7.73,98.2122,9.761,100.156,0.0001373
7.95,100.413,9.761,100.156,0.0001831
8.17,102.613,9.761,100.157,0.0010984
8.39,104.813,9.761,100.158,0.0010535
8.61,107.014,9.761,100.158,-0.0002749
8.83,109.214,9.761,100.159,0.0003666
9.05,111.415,9.761,100.159,0.0003668
9.28,113.615,9.761,100.159,-0.0003666
9.5,115.815,9.761,100.159,0.0000000
9.72,118.016,9.761,100.159,-0.0000458
9.93,120.216,9.761,100.159,0.0004582
10.15,122.417,9.761,100.159,0.0007338
10.38,124.617,9.762,100.159,0.0007338
10.6,126.817,9.762,100.16,-0.0001376
10.82,129.018,9.762,100.159,-0.0000458
11.04,131.218,9.761,100.158,-0.0003200
11.25,133.418,9.761,100.156,-0.0010956
11.48,135.619,9.761,100.153,-0.0016420
11.69,137.819,9.76,100.147,-0.0030502
11.91,140.02,9.76,100.141,-0.0022796
12.13,142.22,9.759,100.134,-0.0026063
12.35,144.42,9.759,100.13,-0.0020189
12.57,146.621,9.758,100.125,-0.0016539
12.8,148.821,9.758,100.122,-0.0013779
13.02,151.022,9.758,100.118,-0.0016067
13.24,153.222,9.757,100.115,-0.0014688
13.46,155.422,9.757,100.111,-0.0018357
13.68,157.623,9.757,100.108,-0.0021101
13.9,159.823,9.756,100.104,-0.0017882
14.12,162.024,9.756,100.1,-0.0025213
14.34,164.224,9.755,100.094,-0.0032102
14.56,166.424,9.755,100.089,-0.0028825
14.78,168.625,9.754,100.083,-0.0025667
15,170.825,9.754,100.078,-0.0018796
15.22,173.026,9.753,100.072,-0.0025174
15.44,175.226,9.753,100.067,-0.0017388
15.66,177.426,9.752,100.062,-0.0021986
15.88,179.627,9.751,100.056,-0.0026564
16.1,181.827,9.751,100.05,-0.0025651
16.32,184.028,9.75,100.044,-0.0025213
16.54,186.228,9.75,100.038,-0.0025192
16.76,188.428,9.749,100.032,-0.0034789
16.98,190.629,9.748,100.025,-0.0028383
17.2,192.829,9.748,100.019,-0.0032988
17.42,195.029,9.747,100.012,-0.0034837
17.64,197.23,9.746,100.005,-0.0029323
17.86,199.43,9.746,99.998,-0.0030686
18.08,201.631,9.745,99.992,-0.0022915
18.3,203.831,9.745,99.985,-0.0027948
18.52,206.031,9.744,99.978,-0.0031155
18.74,208.232,9.743,99.971,-0.0029349
18.96,210.432,9.743,99.964,-0.0030248
19.18,212.633,9.742,99.957,-0.0038919
19.4,214.833,9.741,99.95,-0.0030220
19.62,217.033,9.74,99.943,-0.0032518
19.84,219.234,9.74,99.936,-0.0030248
20.06,221.434,9.739,99.928,-0.0027961
20.28,223.635,9.738,99.921,-0.0031622
20.51,225.835,9.738,99.914,-0.0030695
20.73,228.035,9.737,99.907,-0.0035740
20.94,230.236,9.736,99.899,-0.0039883
21.17,232.436,9.735,99.892,-0.0035787
21.38,234.637,9.735,99.884,-0.0040378
21.61,236.837,9.734,99.877,-0.0031136
21.83,239.037,9.733,99.869,-0.0027918
22.05,241.238,9.732,99.861,-0.0032976
22.27,243.438,9.732,99.854,-0.0038031
22.49,245.639,9.731,99.846,-0.0035727
22.71,247.839,9.73,99.838,-0.0040304
22.93,250.039,9.729,99.83,-0.0040788
23.15,252.24,9.729,99.822,-0.0036172
23.37,254.44,9.728,99.814,-0.0034773
23.59,256.64,9.727,99.806,-0.0034830
23.81,258.841,9.726,99.798,-0.0036172
24.03,261.041,9.725,99.79,-0.0037122
24.25,263.242,9.725,99.781,-0.0039413
24.47,265.442,9.724,99.773,-0.0043554
24.69,267.642,9.723,99.764,-0.0039399
24.91,269.843,9.722,99.757,-0.0030678
25.13,272.043,9.721,99.748,-0.0046780
25.35,274.244,9.721,99.739,-0.0039377
25.57,276.444,9.72,99.729,-0.0039371
25.79,278.644,9.719,99.72,-0.0040330
26.01,280.845,9.718,99.711,-0.0037101
26.23,283.045,9.717,99.703,-0.0039858
26.45,285.246,9.716,99.694,-0.0039850
26.67,287.446,9.715,99.685,-0.0034799
26.89,289.646,9.714,99.676,-0.0044439
27.11,291.847,9.713,99.666,-0.0043498
27.33,294.047,9.712,99.656,-0.0041179
27.55,296.248,9.711,99.645,-0.0046271
27.77,298.448,9.71,99.636,-0.0044872
27.99,300.648,9.71,99.627,-0.0050844
28.21,302.849,9.709,99.617,-0.0049020
28.43,305.049,9.708,99.606,-0.0059525
28.65,307.25,9.706,99.595,-0.0051740
28.87,309.45,9.705,99.583,-0.0057692
29.09,311.65,9.704,99.571,-0.0058641
29.31,313.851,9.703,99.559,-0.0057766
29.53,316.051,9.702,99.546,-0.0055382
29.75,318.251,9.7,99.533,-0.0062328
29.97,320.452,9.699,99.52,-0.0066007
30.19,322.652,9.698,99.506,-0.0064538
30.41,324.853,9.696,99.489,-0.0103938
30.63,327.053,9.694,99.469,-0.0076007
30.85,329.253,9.693,99.452,-0.0068619
31.07,331.454,9.691,99.436,-0.0077381
31.29,333.654,9.689,99.42,-0.0077381
31.51,335.855,9.688,99.404,-0.0070932
31.73,338.055,9.686,99.387,-0.0073761
31.95,340.255,9.685,99.37,-0.0094322
32.17,342.456,9.683,99.351,-0.0091575
32.39,344.656,9.681,99.332,-0.0092528
32.61,346.857,9.679,99.312,-0.0092033
32.83,349.057,9.677,99.293,-0.0088419
33.05,351.257,9.675,99.274,-0.0075578
33.27,353.458,9.674,99.257,-0.0078270
33.49,355.658,9.672,99.24,-0.0085735
33.71,357.859,9.67,99.224,-0.0065078
33.93,360.059,9.669,99.208,-0.0065476
34.16,362.259,9.667,99.193,-0.0085734
34.38,364.46,9.666,99.176,-0.0076465
34.59,366.66,9.664,99.159,-0.0077810
34.82,368.861,9.662,99.141,-0.0085701
35.04,371.061,9.66,99.123,-0.0090659
35.26,373.261,9.659,99.103,-0.0086934
35.48,375.462,9.656,99.081,-0.0101548
35.69,377.662,9.654,99.057,-0.0107861
35.91,379.862,9.652,99.032,-0.0122207
36.14,382.063,9.649,99.005,-0.0133120
36.36,384.263,9.646,98.976,-0.0136979
36.58,386.464,9.643,98.944,-0.0158053
36.79,388.664,9.64,98.91,-0.0166299
37.01,390.864,9.636,98.872,-0.0179945
37.24,393.065,9.632,98.831,-0.0193681
37.46,395.265,9.628,98.786,-0.0215084
37.68,397.466,9.623,98.737,-0.0233388
37.89,399.666,9.618,98.683,-0.0246112
38.11,401.866,9.612,98.623,-0.0285256
38.34,404.067,9.605,98.557,-0.0315934
38.56,406.267,9.598,98.484,-0.0355506
38.78,408.468,9.59,98.403,-0.0392616
38.99,410.668,9.582,98.313,-0.0420475
39.21,412.868,9.572,98.214,-0.0471233
39.44,415.069,9.561,98.103,-0.0534079
39.66,417.269,9.549,97.977,-0.0609432
39.88,419.47,9.535,97.833,-0.0701538
40.09,421.67,9.518,97.666,-0.0812900
40.32,423.87,9.5,97.471,-0.0949936
40.54,426.071,9.477,97.245,-0.1154620
40.76,428.271,9.445,96.912,-0.1913330
40.98,430.472,9.399,96.442,-0.2384720
41.19,432.672,9.346,95.894,-0.2714830
41.41,434.872,9.278,95.194,-0.3502560
41.64,437.073,9.196,94.357,-0.4208540
41.86,439.273,9.096,93.328,-0.5014190
42.08,441.473,8.979,92.128,-0.5998530
42.29,443.674,8.837,90.678,-0.7243390
42.52,445.874,8.664,88.899,-0.8523690
42.74,448.075,8.455,86.756,-1.02377
42.96,450.275,8.202,84.161,-1.39189
43.18,452.475,7.885,80.904,-1.41232
43.4,454.676,7.545,77.418,-1.68737
43.62,456.876,7.142,73.284,-2.0809
43.84,459.077,6.68,68.544,-2.20458
44.06,461.277,6.158,63.18,-2.39765
44.28,463.477,5.574,57.193,-2.88683
44.5,465.678,4.918,50.461,-3.20275
44.72,467.878,4.219,43.292,-3.37962
44.94,470.079,3.484,35.744,-3.41132
45.16,472.279,2.746,28.172,-3.41559
45.38,474.479,2.038,20.908,-3.22017
45.59,476.68,1.401,14.373,-2.70031
45.81,478.88,0.8850000,9.085,-2.0739
46.03,481.081,0.5240000,5.38,-1.30841
46.25,483.281,0.3170000,3.256,-0.6764270
46.47,485.481,0.2180000,2.234,-0.2799300
46.69,487.682,0.1820000,1.864,-0.0731623
46.91,489.882,0.1680000,1.725,-0.0485072
47.14,492.083,0.1610000,1.656,-0.0182601
47.36,494.283,0.1590000,1.631,-0.0057816
47.58,496.483,0.1580000,1.622,-0.0020395
47.8,498.684,0.1580000,1.619,-0.0014021
48.02,500.884,0.1580000,1.617,-0.0005105
48.24,503.084,0.1580000,1.617,-0.0006146
48.46,505.285,0.1580000,1.616,0.0004562
48.68,507.485,0.1580000,1.616,0.0000350
48.9,509.686,0.1570000,1.616,0.0003601
49.12,511.886,0.1570000,1.616,0.0001157
49.34,514.086,0.1570000,1.615,-0.0000057
49.56,516.287,0.1570000,1.614,-0.0007879
49.78,518.487,0.1570000,1.613,-0.0007353
50,520.688,0.1570000,1.611,-0.0007263
50.21,522.888,0.1570000,1.611,-0.0005031
50.44,525.088,0.1570000,1.61,-0.0004307
50.66,527.289,0.1570000,1.609,-0.0007654
50.88,529.489,0.1570000,1.608,-0.0008006
51.09,531.69,0.1570000,1.607,-0.0000923
51.31,533.89,0.1570000,1.606,0.0002208
51.54,536.09,0.1560000,1.605,-0.0009423
51.76,538.291,0.1560000,1.604,-0.0004809
51.98,540.491,0.1560000,1.603,-0.0009247
52.19,542.692,0.1560000,1.601,-0.0011102
52.41,544.892,0.1560000,1.6,-0.0006108
52.63,547.092,0.1560000,1.598,-0.0008576
52.85,549.293,0.1560000,1.597,-0.0006349
53.07,551.493,0.1560000,1.596,-0.0003949
53.29,553.694,0.1550000,1.595,-0.0017113
53.51,555.894,0.1550000,1.594,-0.0004497
53.73,558.094,0.1550000,1.592,-0.0005979
53.95,560.295,0.1550000,1.591,-0.0010684
54.17,562.495,0.1550000,1.589,-0.0009583
54.39,564.695,0.1550000,1.586,-0.0008278
54.61,566.896,0.1540000,1.584,-0.0010783
54.83,569.096,0.1540000,1.582,-0.0017580
55.05,571.297,0.1540000,1.578,-0.0020924
55.27,573.497,0.1530000,1.575,-0.0020997
55.49,575.697,0.1530000,1.57,-0.0037152
55.71,577.898,0.1530000,1.565,-0.0026135
55.93,580.098,0.1520000,1.558,-0.0029422
56.15,582.299,0.1510000,1.552,-0.0025533
56.37,584.499,0.1510000,1.544,-0.0033228
56.59,586.699,0.1500000,1.537,-0.0040155
56.81,588.9,0.1490000,1.529,-0.0039071
56.92,590,0.1490000,1.524,-0.0044090