File: R/rHDPE_App/app/www/Output/TGA/Condensed_Data/Resin4_1_.csv
0.7400000,30,11.634,100.02,0.0057884
1.02,32.2004,11.635,100.031,0.0032122
1.28,34.4008,11.636,100.036,0.0051212
1.52,36.6012,11.636,100.04,0.0033696
1.76,38.8016,11.636,100.044,-0.0005422
2,41.002,11.637,100.048,0.0010700
2.23,43.2024,11.637,100.051,-0.0009182
2.46,45.4028,11.638,100.055,0.0013435
2.69,47.6031,11.638,100.058,0.0021420
2.92,49.8035,11.639,100.061,0.0014666
3.15,52.0039,11.639,100.065,0.0019770
3.37,54.2043,11.639,100.068,0.0010774
3.6,56.4047,11.64,100.071,0.0008867
3.82,58.6051,11.64,100.074,0.0006974
4.04,60.8055,11.64,100.077,0.0020855
4.27,63.0059,11.641,100.08,-0.0000462
4.49,65.2063,11.641,100.082,0.0011993
4.71,67.4067,11.641,100.085,0.0016119
4.93,69.6071,11.642,100.087,0.0011947
5.15,71.8075,11.642,100.089,0.0003214
5.37,74.0079,11.642,100.092,0.0013764
5.59,76.2083,11.642,100.094,0.0009172
5.81,78.4086,11.643,100.096,0.0011033
6.03,80.609,11.643,100.099,0.0010524
6.25,82.8094,11.643,100.1,0.0007317
6.47,85.0098,11.643,100.102,0.0004576
6.69,87.2102,11.643,100.103,0.0007779
6.91,89.4106,11.644,100.104,0.0008240
7.13,91.611,11.644,100.106,0.0008237
7.35,93.8114,11.644,100.106,0.0006416
7.57,96.0118,11.644,100.108,0.0004582
7.79,98.2122,11.644,100.109,0.0001831
8.01,100.413,11.644,100.109,-0.0000458
8.23,102.613,11.644,100.11,0.0003663
8.45,104.813,11.644,100.111,0.0000000
8.68,107.014,11.644,100.111,0.0004123
8.9,109.214,11.644,100.112,0.0003660
9.12,111.415,11.644,100.112,0.0001830
9.33,113.615,11.645,100.113,0.0000458
9.55,115.815,11.645,100.113,0.0004121
9.78,118.016,11.645,100.113,-0.0003207
10,120.216,11.645,100.113,-0.0002292
10.22,122.417,11.645,100.113,0.0003210
10.43,124.617,11.645,100.113,0.0004127
10.65,126.817,11.645,100.113,0.0001377
10.88,129.018,11.645,100.114,0.0004130
11.1,131.218,11.645,100.115,0.0003686
11.32,133.418,11.645,100.117,0.0009189
11.54,135.619,11.645,100.118,0.0006884
11.76,137.819,11.645,100.12,0.0005032
11.98,140.02,11.645,100.12,0.0004564
12.2,142.22,11.645,100.12,0.0000455
12.42,144.42,11.645,100.118,-0.0015010
12.63,146.621,11.645,100.114,-0.0023934
12.85,148.821,11.644,100.109,-0.0019913
13.07,151.022,11.644,100.104,-0.0012346
13.29,153.222,11.643,100.102,-0.0005987
13.51,155.422,11.643,100.1,-0.0009227
13.73,157.623,11.643,100.098,-0.0002304
13.96,159.823,11.643,100.097,-0.0006438
14.18,162.024,11.643,100.096,-0.0006431
14.4,164.224,11.643,100.096,-0.0003673
14.62,166.424,11.642,100.095,-0.0001377
14.84,168.625,11.642,100.094,-0.0003671
15.06,170.825,11.642,100.093,-0.0006420
15.28,173.026,11.642,100.091,-0.0009627
15.5,175.226,11.642,100.09,-0.0004123
15.72,177.426,11.642,100.089,-0.0006419
15.94,179.627,11.642,100.088,-0.0006865
16.16,181.827,11.641,100.086,-0.0004584
16.38,184.028,11.641,100.084,-0.0002291
16.6,186.228,11.641,100.083,-0.0007791
16.82,188.428,11.641,100.081,-0.0004122
17.04,190.629,11.641,100.079,-0.0006415
17.26,192.829,11.64,100.078,-0.0006873
17.48,195.029,11.64,100.075,-0.0008253
17.7,197.23,11.64,100.073,-0.0004125
17.92,199.43,11.64,100.071,-0.0007327
18.14,201.631,11.639,100.069,-0.0008237
18.36,203.831,11.639,100.066,-0.0015588
18.58,206.031,11.639,100.064,-0.0013291
18.81,208.232,11.639,100.061,-0.0008705
19.03,210.432,11.638,100.059,-0.0011450
19.24,212.633,11.638,100.056,-0.0006417
19.47,214.833,11.638,100.054,-0.0019252
19.68,217.033,11.637,100.05,-0.0021087
19.91,219.234,11.637,100.047,-0.0011905
20.13,221.434,11.637,100.044,-0.0017870
20.34,223.635,11.636,100.041,-0.0018349
20.57,225.835,11.636,100.038,-0.0019222
20.79,228.035,11.635,100.034,-0.0014204
21.01,230.236,11.635,100.031,-0.0014201
21.23,232.436,11.635,100.027,-0.0014194
21.45,234.637,11.634,100.023,-0.0014220
21.67,236.837,11.634,100.019,-0.0014208
21.89,239.037,11.633,100.015,-0.0018773
22.11,241.238,11.633,100.011,-0.0015105
22.33,243.438,11.632,100.007,-0.0019697
22.55,245.639,11.632,100.003,-0.0018320
22.77,247.839,11.631,99.999,-0.0018340
22.99,250.039,11.631,99.994,-0.0021078
23.21,252.24,11.63,99.99,-0.0026111
23.43,254.44,11.63,99.985,-0.0022887
23.65,256.64,11.629,99.98,-0.0023352
23.87,258.841,11.628,99.975,-0.0026114
24.09,261.041,11.628,99.969,-0.0023352
24.31,263.242,11.627,99.964,-0.0031622
24.53,265.442,11.627,99.958,-0.0026084
24.75,267.642,11.626,99.952,-0.0022873
24.97,269.843,11.625,99.945,-0.0025641
25.19,272.043,11.624,99.939,-0.0033864
25.41,274.244,11.623,99.932,-0.0032509
25.63,276.444,11.623,99.925,-0.0032539
25.85,278.644,11.622,99.917,-0.0035256
26.07,280.845,11.621,99.91,-0.0040344
26.29,283.045,11.62,99.901,-0.0041269
26.51,285.246,11.619,99.892,-0.0039858
26.73,287.446,11.618,99.883,-0.0044438
26.95,289.646,11.617,99.874,-0.0041224
27.17,291.847,11.616,99.864,-0.0048561
27.39,294.047,11.614,99.854,-0.0046270
27.61,296.248,11.613,99.842,-0.0053593
27.83,298.448,11.612,99.831,-0.0054945
28.05,300.648,11.61,99.819,-0.0054516
28.27,302.849,11.609,99.807,-0.0060005
28.49,305.049,11.607,99.794,-0.0054466
28.71,307.25,11.606,99.78,-0.0066392
28.93,309.45,11.604,99.766,-0.0064596
29.15,311.65,11.602,99.751,-0.0066429
29.37,313.851,11.601,99.736,-0.0066428
29.59,316.051,11.599,99.72,-0.0072504
29.82,318.251,11.597,99.704,-0.0073812
30.03,320.452,11.595,99.687,-0.0075508
30.26,322.652,11.593,99.67,-0.0080985
30.48,324.853,11.591,99.652,-0.0080999
30.69,327.053,11.589,99.633,-0.0081502
30.92,329.253,11.587,99.614,-0.0084707
31.13,331.454,11.584,99.595,-0.0092949
31.36,333.654,11.582,99.575,-0.0087454
31.58,335.855,11.58,99.555,-0.0091949
31.79,338.055,11.577,99.535,-0.0090003
32.02,340.255,11.575,99.515,-0.0092491
32.23,342.456,11.573,99.495,-0.0091492
32.45,344.656,11.57,99.474,-0.0093830
32.68,346.857,11.568,99.454,-0.0083409
32.89,349.057,11.566,99.435,-0.0088893
33.12,351.257,11.563,99.416,-0.0081383
33.33,353.458,11.561,99.397,-0.0085087
33.56,355.658,11.559,99.379,-0.0080586
33.78,357.859,11.557,99.361,-0.0082357
33.99,360.059,11.555,99.343,-0.0082875
34.21,362.259,11.553,99.325,-0.0081931
34.44,364.46,11.551,99.307,-0.0080586
34.66,366.66,11.549,99.289,-0.0083288
34.88,368.861,11.547,99.27,-0.0084707
35.09,371.061,11.544,99.251,-0.0091525
35.31,373.261,11.542,99.231,-0.0096066
35.54,375.462,11.54,99.21,-0.0096524
35.76,377.662,11.537,99.188,-0.0096700
35.98,379.862,11.534,99.165,-0.0107182
36.19,382.063,11.531,99.139,-0.0121270
36.41,384.263,11.528,99.112,-0.0134950
36.64,386.464,11.525,99.081,-0.0145015
36.86,388.664,11.521,99.047,-0.0161113
37.08,390.864,11.516,99.01,-0.0173993
37.29,393.065,11.512,98.97,-0.0185270
37.51,395.265,11.507,98.927,-0.0207342
37.74,397.466,11.501,98.88,-0.0219780
37.96,399.666,11.495,98.829,-0.0246202
38.18,401.866,11.489,98.773,-0.0265325
38.39,404.067,11.482,98.711,-0.0289675
38.61,406.267,11.474,98.644,-0.0323083
38.84,408.468,11.465,98.568,-0.0355901
39.06,410.668,11.455,98.484,-0.0403020
39.28,412.868,11.444,98.39,-0.0450595
39.49,415.069,11.432,98.285,-0.0508242
39.71,417.269,11.418,98.165,-0.0582418
39.94,419.47,11.402,98.029,-0.0667216
40.16,421.67,11.384,97.872,-0.0762898
40.38,423.87,11.363,97.691,-0.0881627
40.59,426.071,11.336,97.458,-0.1251610
40.81,428.271,11.298,97.132,-0.1642660
41.04,430.472,11.252,96.737,-0.1926000
41.26,432.672,11.199,96.281,-0.2323490
41.48,434.872,11.135,95.736,-0.2773560
41.69,437.073,11.06,95.088,-0.3207860
41.91,439.273,10.97,94.317,-0.3692580
42.14,441.473,10.872,93.473,-0.3886520
42.36,443.674,10.757,92.484,-0.5698320
42.58,445.874,10.607,91.196,-0.6274690
42.79,448.075,10.428,89.655,-0.7163740
43.01,450.275,10.207,87.753,-0.9758470
43.24,452.475,9.938,85.44,-1.08054
43.46,454.676,9.626,82.76,-1.42752
43.68,456.876,9.266,79.659,-1.58146
43.89,459.077,8.825,75.87,-1.79003
44.12,461.277,8.303,71.38,-2.22407
44.34,463.477,7.689,66.109,-2.60729
44.56,465.678,6.996,60.145,-2.90464
44.78,467.878,6.205,53.348,-3.09361
44.99,470.079,5.253,45.161,-3.87132
45.22,472.279,4.313,37.082,-3.54285
45.44,474.479,3.398,29.211,-3.46739
45.66,476.68,2.512,21.596,-2.69453
45.87,478.88,1.846,15.869,-2.45918
46.09,481.081,1.28,11.008,-1.94384
46.31,483.281,0.8710000,7.489,-1.25274
46.53,485.481,0.6210000,5.335,-0.6874140
46.75,487.682,0.4990000,4.294,-0.2975980
46.97,489.882,0.4570000,3.931,-0.0732220
47.19,492.083,0.4430000,3.81,-0.0454362
47.41,494.283,0.4350000,3.739,-0.0211822
47.64,496.483,0.4310000,3.709,-0.0083802
47.86,498.684,0.4300000,3.699,-0.0028515
48.08,500.884,0.4300000,3.695,-0.0006609
48.29,503.084,0.4300000,3.694,0.0000029
48.51,505.285,0.4300000,3.695,-0.0000057
48.74,507.485,0.4300000,3.695,0.0005843
48.96,509.686,0.4300000,3.696,0.0002842
49.17,511.886,0.4300000,3.696,0.0000444
49.39,514.086,0.4300000,3.696,0.0004472
49.61,516.287,0.4300000,3.697,0.0003076
49.83,518.487,0.4300000,3.697,0.0004660
50.05,520.688,0.4300000,3.697,0.0000557
50.27,522.888,0.4300000,3.698,0.0002011
50.49,525.088,0.4300000,3.698,0.0002773
50.71,527.289,0.4300000,3.699,0.0000343
50.93,529.489,0.4300000,3.699,0.0002230
51.15,531.69,0.4300000,3.699,-0.0000257
51.37,533.89,0.4300000,3.7,0.0000973
51.59,536.09,0.4300000,3.7,0.0004398
51.81,538.291,0.4300000,3.701,0.0002429
52.03,540.491,0.4300000,3.701,0.0000444
52.25,542.692,0.4310000,3.702,0.0002144
52.47,544.892,0.4310000,3.702,0.0004564
52.69,547.092,0.4310000,3.702,0.0003259
52.91,549.293,0.4310000,3.703,0.0004399
53.13,551.493,0.4310000,3.703,0.0005418
53.35,553.694,0.4310000,3.704,0.0004302
53.57,555.894,0.4310000,3.705,0.0004985
53.79,558.094,0.4310000,3.706,0.0002039
54.01,560.295,0.4310000,3.706,0.0006684
54.23,562.495,0.4310000,3.707,0.0003421
54.45,564.695,0.4310000,3.708,0.0002187
54.67,566.896,0.4310000,3.709,0.0000614
54.89,569.096,0.4320000,3.71,0.0001359
55.11,571.297,0.4320000,3.711,0.0007355
55.33,573.497,0.4320000,3.712,0.0001746
55.55,575.697,0.4320000,3.713,0.0005795
55.77,577.898,0.4320000,3.714,0.0005617
55.99,580.098,0.4320000,3.715,0.0007011
56.21,582.299,0.4320000,3.715,0.0007418
56.43,584.499,0.4320000,3.716,0.0005237
56.65,586.699,0.4320000,3.717,0.0002187
56.87,588.9,0.4320000,3.717,0.0001728
56.98,590,0.4320000,3.718,0.0005842