File: R/rHDPE_App/app/www/Output/TGA/Condensed_Data/Resin20_1_.csv
1.01,30,11.658,100.031,0.0069590
1.28,32.3004,11.659,100.039,0.0038392
1.53,34.6008,11.659,100.045,0.0011039
1.78,36.9012,11.66,100.05,0.0028035
2.03,39.2016,11.661,100.055,0.0018991
2.27,41.5021,11.661,100.058,0.0018358
2.51,43.8025,11.661,100.063,0.0013917
2.76,46.1029,11.662,100.067,0.0013821
2.99,48.4033,11.663,100.072,0.0018928
3.23,50.7037,11.663,100.076,0.0027757
3.47,53.0041,11.664,100.081,0.0024823
3.7,55.3045,11.664,100.085,0.0013537
3.94,57.6049,11.665,100.089,0.0024659
4.17,59.9053,11.665,100.092,0.0017614
4.4,62.2058,11.665,100.094,0.0003692
4.64,64.5062,11.666,100.098,0.0020831
4.87,66.8066,11.666,100.102,0.0014301
5.1,69.107,11.666,100.105,0.0015601
5.33,71.4074,11.667,100.107,0.0010508
5.56,73.7078,11.667,100.11,0.0021152
5.79,76.0082,11.667,100.114,0.0014227
6.02,78.3086,11.668,100.116,0.0016474
6.25,80.609,11.668,100.117,0.0015533
6.48,82.9094,11.668,100.12,0.0002752
6.71,85.2099,11.668,100.122,0.0017877
6.94,87.5103,11.669,100.123,0.0006384
7.17,89.8107,11.669,100.125,0.0002289
7.4,92.1111,11.669,100.126,0.0005943
7.63,94.4115,11.669,100.127,0.0010530
7.86,96.7119,11.669,100.128,0.0007797
8.09,99.0123,11.669,100.129,0.0002749
8.32,101.313,11.669,100.13,0.0003666
8.55,103.613,11.669,100.13,-0.0003206
8.78,105.914,11.669,100.131,0.0005950
9.01,108.214,11.67,100.132,0.0005500
9.24,110.514,11.67,100.132,0.0002744
9.47,112.815,11.67,100.132,-0.0000915
9.7,115.115,11.67,100.132,-0.0000459
9.93,117.416,11.67,100.132,-0.0005498
10.16,119.716,11.67,100.132,-0.0004129
10.39,122.016,11.67,100.132,-0.0005501
10.62,124.317,11.67,100.132,0.0003207
10.85,126.617,11.67,100.132,-0.0000000
11.08,128.918,11.67,100.133,0.0000916
11.31,131.218,11.67,100.133,0.0000000
11.54,133.518,11.67,100.132,-0.0011886
11.77,135.819,11.669,100.131,-0.0015508
12,138.119,11.669,100.127,-0.0025431
12.23,140.42,11.668,100.121,-0.0017725
12.46,142.72,11.668,100.116,-0.0010055
12.69,145.021,11.667,100.112,-0.0015607
12.92,147.321,11.667,100.109,-0.0018817
13.15,149.621,11.666,100.105,-0.0010645
13.38,151.922,11.666,100.102,-0.0014697
13.61,154.222,11.666,100.099,-0.0013717
13.84,156.523,11.665,100.096,-0.0018303
14.07,158.823,11.665,100.093,-0.0019702
14.3,161.123,11.665,100.089,-0.0019246
14.53,163.424,11.664,100.084,-0.0019252
14.76,165.724,11.663,100.08,-0.0024732
14.99,168.025,11.663,100.075,-0.0020159
15.22,170.325,11.662,100.07,-0.0021540
15.45,172.625,11.662,100.065,-0.0026104
15.68,174.926,11.661,100.059,-0.0026574
15.91,177.226,11.66,100.053,-0.0025653
16.14,179.527,11.66,100.047,-0.0027982
16.37,181.827,11.659,100.041,-0.0026116
16.6,184.128,11.658,100.034,-0.0030275
16.83,186.428,11.657,100.027,-0.0037146
17.07,188.728,11.657,100.02,-0.0034799
17.29,191.029,11.656,100.013,-0.0029754
17.53,193.329,11.655,100.006,-0.0034319
17.76,195.63,11.654,99.998,-0.0031122
17.98,197.93,11.653,99.99,-0.0032979
18.22,200.23,11.652,99.982,-0.0040759
18.45,202.531,11.651,99.974,-0.0038021
18.68,204.831,11.65,99.966,-0.0028846
18.91,207.132,11.649,99.957,-0.0042171
19.14,209.432,11.648,99.949,-0.0041648
19.37,211.732,11.647,99.94,-0.0035273
19.6,214.033,11.646,99.931,-0.0043575
19.83,216.333,11.645,99.922,-0.0041732
20.06,218.634,11.644,99.913,-0.0039443
20.29,220.934,11.643,99.904,-0.0044484
20.52,223.235,11.642,99.894,-0.0038073
20.75,225.535,11.641,99.885,-0.0043080
20.98,227.835,11.64,99.875,-0.0038937
21.21,230.136,11.639,99.865,-0.0043494
21.44,232.436,11.637,99.856,-0.0048580
21.67,234.737,11.636,99.845,-0.0040762
21.9,237.037,11.635,99.835,-0.0044421
22.13,239.337,11.634,99.825,-0.0045817
22.36,241.638,11.633,99.815,-0.0048143
22.59,243.938,11.631,99.805,-0.0044913
22.82,246.239,11.63,99.794,-0.0043550
23.05,248.539,11.629,99.784,-0.0046725
23.28,250.839,11.628,99.773,-0.0050399
23.51,253.14,11.626,99.762,-0.0046725
23.74,255.44,11.625,99.751,-0.0052189
23.97,257.741,11.624,99.74,-0.0049451
24.2,260.041,11.623,99.729,-0.0049983
24.43,262.341,11.621,99.717,-0.0056370
24.66,264.642,11.62,99.706,-0.0049954
24.89,266.942,11.619,99.694,-0.0046677
25.12,269.243,11.617,99.682,-0.0051226
25.35,271.543,11.616,99.67,-0.0054029
25.58,273.844,11.614,99.658,-0.0055505
25.82,276.144,11.613,99.645,-0.0054059
26.04,278.444,11.611,99.633,-0.0059066
26.28,280.745,11.61,99.62,-0.0054945
26.51,283.045,11.608,99.607,-0.0057266
26.73,285.346,11.607,99.595,-0.0055912
26.97,287.646,11.605,99.582,-0.0058662
27.19,289.946,11.604,99.569,-0.0061388
27.43,292.247,11.602,99.556,-0.0061412
27.66,294.547,11.601,99.543,-0.0053611
27.88,296.848,11.599,99.53,-0.0060004
28.12,299.148,11.598,99.517,-0.0055861
28.35,301.448,11.596,99.504,-0.0054029
28.58,303.749,11.595,99.491,-0.0056341
28.81,306.049,11.593,99.478,-0.0059098
29.04,308.35,11.592,99.465,-0.0059066
29.27,310.65,11.59,99.452,-0.0063234
29.5,312.951,11.589,99.439,-0.0057735
29.73,315.251,11.587,99.426,-0.0053571
29.96,317.551,11.586,99.413,-0.0061355
30.19,319.852,11.584,99.399,-0.0066368
30.42,322.152,11.583,99.386,-0.0059556
30.65,324.453,11.581,99.372,-0.0063129
30.88,326.753,11.579,99.358,-0.0056777
31.11,329.053,11.578,99.344,-0.0057725
31.34,331.354,11.576,99.33,-0.0064103
31.57,333.654,11.574,99.316,-0.0060440
31.8,335.955,11.573,99.301,-0.0057203
32.03,338.255,11.571,99.287,-0.0064560
32.26,340.555,11.569,99.272,-0.0055372
32.49,342.856,11.568,99.257,-0.0061835
32.72,345.156,11.566,99.242,-0.0062695
32.95,347.457,11.564,99.227,-0.0068618
33.18,349.757,11.562,99.211,-0.0065934
33.41,352.058,11.56,99.195,-0.0069190
33.64,354.358,11.558,99.179,-0.0067766
33.87,356.658,11.557,99.162,-0.0070552
34.1,358.959,11.555,99.145,-0.0076007
34.33,361.259,11.553,99.128,-0.0072802
34.56,363.56,11.551,99.111,-0.0077796
34.79,365.86,11.548,99.092,-0.0082875
35.02,368.16,11.546,99.073,-0.0086127
35.25,370.461,11.544,99.053,-0.0084326
35.48,372.761,11.541,99.032,-0.0090450
35.71,375.062,11.539,99.011,-0.0094954
35.94,377.362,11.536,98.988,-0.0097591
36.17,379.662,11.534,98.965,-0.0107331
36.4,381.963,11.531,98.94,-0.0111770
36.63,384.263,11.528,98.913,-0.0115779
36.86,386.564,11.524,98.885,-0.0126374
37.09,388.864,11.521,98.855,-0.0136829
37.32,391.164,11.517,98.823,-0.0145333
37.55,393.465,11.513,98.788,-0.0160403
37.78,395.765,11.508,98.75,-0.0172778
38.01,398.066,11.504,98.708,-0.0190934
38.24,400.366,11.498,98.661,-0.0213370
38.47,402.667,11.492,98.61,-0.0238880
38.7,404.967,11.485,98.553,-0.0254121
38.93,407.267,11.478,98.489,-0.0290484
39.16,409.568,11.47,98.419,-0.0321429
39.39,411.868,11.461,98.341,-0.0349497
39.62,414.169,11.451,98.255,-0.0399963
39.85,416.469,11.439,98.156,-0.0456581
40.08,418.769,11.426,98.042,-0.0535062
40.31,421.07,11.41,97.908,-0.0641731
40.54,423.37,11.392,97.747,-0.0765783
40.77,425.671,11.368,97.546,-0.0985822
41,427.971,11.335,97.264,-0.1536660
41.23,430.271,11.291,96.881,-0.1665920
41.46,432.572,11.238,96.433,-0.2314560
41.69,434.872,11.163,95.788,-0.3210620
41.92,437.173,11.065,94.948,-0.3990380
42.15,439.473,10.947,93.934,-0.4916670
42.38,441.774,10.801,92.683,-0.5961080
42.61,444.074,10.629,91.204,-0.6931830
42.84,446.374,10.42,89.408,-0.7847070
43.07,448.675,10.187,87.41,-1.0066
43.3,450.975,9.881,84.787,-1.18675
43.53,453.276,9.505,81.556,-1.57127
43.76,455.576,9.046,77.621,-1.95903
43.99,457.876,8.515,73.06,-2.12748
44.22,460.177,7.896,67.756,-2.46907
44.45,462.477,7.173,61.552,-2.73952
44.68,464.778,6.383,54.767,-3.25282
44.91,467.078,5.508,47.258,-3.36393
45.14,469.378,4.567,39.189,-3.53898
45.37,471.679,3.599,30.883,-3.59814
45.6,473.979,2.655,22.783,-3.44219
45.83,476.28,1.777,15.246,-3.01524
46.06,478.58,1.057,9.069,-2.31237
46.29,480.881,0.5460000,4.688,-1.48489
46.51,483.181,0.2740000,2.354,-0.6375280
46.74,485.481,0.1660000,1.426,-0.2163650
46.98,487.782,0.1350000,1.159,-0.0584073
47.21,490.082,0.1210000,1.039,-0.0376395
47.44,492.383,0.1150000,0.9850000,-0.0134248
47.67,494.683,0.1120000,0.9650000,-0.0045769
47.9,496.983,0.1120000,0.9590000,-0.0013290
48.13,499.284,0.1110000,0.9560000,-0.0009408
48.36,501.584,0.1110000,0.9550000,-0.0007927
48.59,503.885,0.1110000,0.9540000,0.0002140
48.82,506.185,0.1110000,0.9540000,0.0003359
49.05,508.485,0.1110000,0.9530000,-0.0005059
49.28,510.786,0.1110000,0.9530000,-0.0002098
49.51,513.086,0.1110000,0.9530000,-0.0005108
49.74,515.387,0.1110000,0.9520000,-0.0000825
49.97,517.687,0.1110000,0.9520000,-0.0006520
50.2,519.987,0.1110000,0.9510000,-0.0002210
50.43,522.288,0.1110000,0.9510000,-0.0008881
50.66,524.588,0.1110000,0.9500000,0.0000233
50.89,526.889,0.1110000,0.9490000,-0.0006303
51.12,529.189,0.1110000,0.9480000,-0.0003636
51.35,531.49,0.1100000,0.9480000,-0.0004382
51.58,533.79,0.1100000,0.9470000,-0.0001399
51.81,536.09,0.1100000,0.9460000,-0.0005323
52.04,538.391,0.1100000,0.9450000,-0.0001964
52.27,540.691,0.1100000,0.9440000,-0.0002086
52.5,542.992,0.1100000,0.9430000,0.0005560
52.73,545.292,0.1100000,0.9430000,-0.0004409
52.96,547.592,0.1100000,0.9420000,0.0000783
53.19,549.893,0.1100000,0.9410000,-0.0001686
53.42,552.193,0.1100000,0.9400000,-0.0004420
53.65,554.494,0.1090000,0.9390000,-0.0004542
53.88,556.794,0.1090000,0.9380000,-0.0005111
54.11,559.094,0.1090000,0.9380000,-0.0003123
54.34,561.395,0.1090000,0.9370000,-0.0004824
54.57,563.695,0.1090000,0.9360000,0.0000005
54.8,565.996,0.1090000,0.9350000,-0.0008032
55.03,568.296,0.1090000,0.9340000,-0.0005037
55.26,570.597,0.1090000,0.9330000,-0.0008821
55.49,572.897,0.1090000,0.9320000,-0.0002892
55.72,575.197,0.1080000,0.9300000,-0.0005949
55.95,577.498,0.1080000,0.9290000,-0.0013262
56.18,579.798,0.1080000,0.9260000,-0.0010581
56.41,582.099,0.1080000,0.9240000,-0.0009584
56.64,584.399,0.1070000,0.9220000,-0.0008746
56.87,586.699,0.1070000,0.9200000,-0.0004015
57.1,589,0.1070000,0.9170000,-0.0010755
57.2,590,0.1070000,0.9160000,-0.0010065